Frequency (Hz)	Level (dB)
5.859375	-64.689812
11.718750	-62.288609
17.578125	-49.313126
23.437500	-46.174122
29.296875	-55.231998
35.156250	-63.854816
41.015625	-55.258209
46.875000	-53.571808
52.734375	-56.109138
58.593750	-61.677544
64.453125	-65.147324
70.312500	-65.332245
76.171875	-63.895039
82.031250	-67.682373
87.890625	-71.577461
93.750000	-72.344147
99.609375	-71.640831
105.468750	-75.215981
111.328125	-77.061111
117.187500	-76.934784
123.046875	-77.233444
128.906250	-74.575569
134.765625	-78.118561
140.625000	-82.698341
146.484375	-86.703079
152.343750	-90.004074
158.203125	-89.745338
164.062500	-90.721680
169.921875	-96.066856
175.781250	-98.474106
181.640625	-94.607773
187.500000	-90.455650
193.359375	-87.898949
199.218750	-84.575058
205.078125	-85.808868
210.937500	-89.492599
216.796875	-89.578018
222.656250	-88.121483
228.515625	-87.900818
234.375000	-84.122543
240.234375	-75.234123
246.093750	-71.878357
251.953125	-71.098610
257.812500	-66.433388
263.671875	-65.006073
269.531250	-65.968475
275.390625	-61.522240
281.250000	-63.206768
287.109375	-69.144379
292.968750	-73.449402
298.828125	-75.025429
304.687500	-77.283035
310.546875	-74.384262
316.406250	-73.049652
322.265625	-73.074242
328.125000	-72.523865
333.984375	-74.215675
339.843750	-72.508713
345.703125	-71.023895
351.562500	-70.753532
357.421875	-73.053238
363.281250	-74.684349
369.140625	-74.329269
375.000000	-73.851212
380.859375	-70.816505
386.718750	-65.396530
392.578125	-65.984917
398.437500	-71.356209
404.296875	-73.131355
410.156250	-69.068016
416.015625	-66.886475
421.875000	-60.720398
427.734375	-58.089855
433.593750	-47.074726
439.453125	-31.305592
445.312500	-23.865721
451.171875	-27.137783
457.031250	-43.064148
462.890625	-55.997456
468.750000	-62.975796
474.609375	-71.158257
480.468750	-74.787422
486.328125	-71.607727
492.187500	-72.264389
498.046875	-73.316643
503.906250	-74.284538
509.765625	-76.232903
515.625000	-77.250832
521.484375	-76.631302
527.343750	-73.806427
533.203125	-74.013855
539.062500	-79.290817
544.921875	-78.518578
550.781250	-73.689011
556.640625	-72.025681
562.500000	-73.881851
568.359375	-79.255600
574.218750	-80.596832
580.078125	-81.342209
585.937500	-81.990799
591.796875	-75.344887
597.656250	-76.806900
603.515625	-80.847527
609.375000	-79.879631
615.234375	-82.628899
621.093750	-82.859039
626.953125	-79.939613
632.812500	-79.432602
638.671875	-78.522057
644.531250	-75.002914
650.390625	-73.685715
656.250000	-75.792175
662.109375	-80.311356
667.968750	-81.794823
673.828125	-82.433792
679.687500	-84.152817
685.546875	-80.637688
691.406250	-82.384621
697.265625	-86.403603
703.125000	-79.891602
708.984375	-78.572121
714.843750	-84.442299
720.703125	-82.653976
726.562500	-80.947586
732.421875	-80.991722
738.281250	-82.563469
744.140625	-83.605316
750.000000	-83.634323
755.859375	-82.233452
761.718750	-85.360588
767.578125	-82.148369
773.437500	-80.211990
779.296875	-81.961517
785.156250	-80.671967
791.015625	-77.272270
796.875000	-76.630951
802.734375	-77.931496
808.593750	-75.350510
814.453125	-74.192505
820.312500	-73.673843
826.171875	-74.086601
832.031250	-76.382439
837.890625	-76.584923
843.750000	-77.716743
849.609375	-79.358757
855.468750	-74.316093
861.328125	-77.025528
867.187500	-69.265610
873.046875	-64.774399
878.906250	-58.094326
884.765625	-37.569202
890.625000	-30.998770
896.484375	-32.618805
902.343750	-43.750473
908.203125	-61.761635
914.062500	-65.520821
919.921875	-68.119698
925.781250	-69.676750
931.640625	-67.422783
937.500000	-68.904716
943.359375	-69.898712
949.218750	-71.319664
955.078125	-71.097572
960.937500	-73.000603
966.796875	-78.326584
972.656250	-82.504890
978.515625	-87.262909
984.375000	-85.357613
990.234375	-81.252861
996.093750	-80.187614
1001.953125	-80.895966
1007.812500	-81.008904
1013.671875	-80.447830
1019.531250	-81.937630
1025.390625	-82.060127
1031.250000	-80.923988
1037.109375	-79.633705
1042.968750	-78.664101
1048.828125	-77.492561
1054.687500	-78.205017
1060.546875	-79.124725
1066.406250	-82.903519
1072.265625	-87.080467
1078.125000	-83.053146
1083.984375	-81.964249
1089.843750	-82.839928
1095.703125	-83.531723
1101.562500	-81.402328
1107.421875	-84.079674
1113.281250	-87.142563
1119.140625	-83.688835
1125.000000	-78.763367
1130.859375	-78.748299
1136.718750	-77.995247
1142.578125	-77.238258
1148.437500	-76.869652
1154.296875	-76.448387
1160.156250	-81.740685
1166.015625	-79.978371
1171.875000	-76.090988
1177.734375	-73.994370
1183.593750	-78.299118
1189.453125	-83.193100
1195.312500	-81.675812
1201.171875	-80.376022
1207.031250	-77.576912
1212.890625	-77.609543
1218.750000	-81.849136
1224.609375	-88.339752
1230.468750	-84.168030
1236.328125	-81.280556
1242.187500	-82.239044
1248.046875	-84.715866
1253.906250	-84.013802
1259.765625	-83.083923
1265.625000	-83.471313
1271.484375	-82.480171
1277.343750	-80.269310
1283.203125	-76.592155
1289.062500	-74.381477
1294.921875	-70.194771
1300.781250	-63.856503
1306.640625	-59.898792
1312.500000	-57.434563
1318.359375	-56.279869
1324.218750	-52.742695
1330.078125	-35.670403
1335.937500	-30.616220
1341.796875	-31.677198
1347.656250	-39.152836
1353.515625	-59.341843
1359.375000	-65.443008
1365.234375	-72.319870
1371.093750	-69.335442
1376.953125	-66.935394
1382.812500	-69.670311
1388.671875	-74.883858
1394.531250	-77.472260
1400.390625	-77.649284
1406.250000	-78.003998
1412.109375	-81.028542
1417.968750	-82.514107
1423.828125	-83.669243
1429.687500	-81.380814
1435.546875	-85.120590
1441.406250	-88.612709
1447.265625	-85.806625
1453.125000	-87.642052
1458.984375	-89.796562
1464.843750	-89.061066
1470.703125	-87.749397
1476.562500	-87.859047
1482.421875	-87.015266
1488.281250	-84.086990
1494.140625	-81.843071
1500.000000	-86.540497
1505.859375	-88.177925
1511.718750	-83.986351
1517.578125	-79.238579
1523.437500	-79.678574
1529.296875	-78.979759
1535.156250	-75.492851
1541.015625	-74.920807
1546.875000	-77.786873
1552.734375	-83.598793
1558.593750	-84.643265
1564.453125	-88.262856
1570.312500	-85.988457
1576.171875	-84.718079
1582.031250	-81.692703
1587.890625	-79.758400
1593.750000	-77.023186
1599.609375	-74.624550
1605.468750	-78.888840
1611.328125	-81.158646
1617.187500	-77.091980
1623.046875	-78.240120
1628.906250	-79.733841
1634.765625	-81.086372
1640.625000	-77.806374
1646.484375	-77.182907
1652.343750	-75.245056
1658.203125	-78.118439
1664.062500	-79.310104
1669.921875	-79.662125
1675.781250	-77.743759
1681.640625	-71.524551
1687.500000	-69.685097
1693.359375	-73.939285
1699.218750	-76.044365
1705.078125	-74.203812
1710.937500	-75.085861
1716.796875	-74.435341
1722.656250	-77.368484
1728.515625	-76.054230
1734.375000	-73.053581
1740.234375	-71.118134
1746.093750	-73.647766
1751.953125	-71.355255
1757.812500	-66.468369
1763.671875	-63.686260
1769.531250	-59.886330
1775.390625	-48.780838
1781.250000	-46.645935
1787.109375	-45.921391
1792.968750	-49.084423
1798.828125	-62.297840
1804.687500	-65.314636
1810.546875	-65.759727
1816.406250	-72.278107
1822.265625	-72.345604
1828.125000	-72.300476
1833.984375	-75.805199
1839.843750	-76.876976
1845.703125	-74.220802
1851.562500	-73.504944
1857.421875	-75.053192
1863.281250	-75.242638
1869.140625	-74.510948
1875.000000	-73.786415
1880.859375	-73.388977
1886.718750	-74.874550
1892.578125	-75.629906
1898.437500	-81.207520
1904.296875	-87.857758
1910.156250	-87.945480
1916.015625	-84.312599
1921.875000	-79.716789
1927.734375	-80.272232
1933.593750	-78.250946
1939.453125	-74.106689
1945.312500	-75.850769
1951.171875	-82.316147
1957.031250	-80.013969
1962.890625	-75.459221
1968.750000	-75.128548
1974.609375	-80.136948
1980.468750	-84.543777
1986.328125	-81.210335
1992.187500	-81.190498
1998.046875	-83.393044
2003.906250	-85.498886
2009.765625	-85.422699
2015.625000	-84.021278
2021.484375	-83.715614
2027.343750	-85.406609
2033.203125	-81.146896
2039.062500	-76.054527
2044.921875	-77.013412
2050.781250	-81.472092
2056.640625	-82.362053
2062.500000	-80.574303
2068.359375	-83.583145
2074.218750	-89.484512
2080.078125	-91.210831
2085.937500	-85.356232
2091.796875	-83.237770
2097.656250	-83.809990
2103.515625	-82.527954
2109.375000	-78.914993
2115.234375	-81.458939
2121.093750	-81.946487
2126.953125	-82.000580
2132.812500	-80.930016
2138.671875	-83.215752
2144.531250	-83.776482
2150.390625	-82.273323
2156.250000	-79.987747
2162.109375	-80.525818
2167.968750	-78.808434
2173.828125	-72.129448
2179.687500	-70.324043
2185.546875	-75.706741
2191.406250	-76.615089
2197.265625	-70.179016
2203.125000	-68.358681
2208.984375	-61.604736
2214.843750	-51.639977
2220.703125	-39.387100
2226.562500	-36.703674
2232.421875	-36.359558
2238.281250	-37.177982
2244.140625	-46.081543
2250.000000	-66.188278
2255.859375	-66.642822
2261.718750	-69.710106
2267.578125	-77.406090
2273.437500	-75.046944
2279.296875	-76.748955
2285.156250	-78.353561
2291.015625	-79.410385
2296.875000	-77.270538
2302.734375	-75.859657
2308.593750	-72.142700
2314.453125	-71.838646
2320.312500	-71.402496
2326.171875	-71.145073
2332.031250	-69.538780
2337.890625	-67.141541
2343.750000	-71.039185
2349.609375	-72.373360
2355.468750	-71.811493
2361.328125	-72.516090
2367.187500	-72.854301
2373.046875	-72.610611
2378.906250	-72.433968
2384.765625	-73.280746
2390.625000	-76.749512
2396.484375	-77.523346
2402.343750	-75.184166
2408.203125	-73.889725
2414.062500	-74.220856
2419.921875	-77.453987
2425.781250	-78.515419
2431.640625	-77.756905
2437.500000	-81.660652
2443.359375	-80.734932
2449.218750	-79.270248
2455.078125	-80.192772
2460.937500	-81.465958
2466.796875	-83.415283
2472.656250	-85.295677
2478.515625	-79.888626
2484.375000	-77.912224
2490.234375	-78.037445
2496.093750	-78.149704
2501.953125	-81.473450
2507.812500	-82.389229
2513.671875	-78.982964
2519.531250	-82.223206
2525.390625	-79.228287
2531.250000	-76.358223
2537.109375	-72.984329
2542.968750	-72.730682
2548.828125	-72.134956
2554.687500	-69.141281
2560.546875	-73.067642
2566.406250	-73.320374
2572.265625	-70.351967
2578.125000	-69.769272
2583.984375	-76.736931
2589.843750	-76.358986
2595.703125	-74.371933
2601.562500	-75.547325
2607.421875	-74.123230
2613.281250	-72.801079
2619.140625	-73.374687
2625.000000	-76.025291
2630.859375	-74.173004
2636.718750	-76.726379
2642.578125	-72.850571
2648.437500	-67.310616
2654.296875	-60.250465
2660.156250	-45.152966
2666.015625	-35.337917
2671.875000	-33.727489
2677.734375	-33.230225
2683.593750	-31.350630
2689.453125	-36.364376
2695.312500	-52.156368
2701.171875	-52.754238
2707.031250	-57.564541
2712.890625	-60.128578
2718.750000	-59.392868
2724.609375	-62.431335
2730.468750	-62.537720
2736.328125	-60.764431
2742.187500	-62.063499
2748.046875	-66.112503
2753.906250	-64.239159
2759.765625	-65.989845
2765.625000	-66.143883
2771.484375	-67.984619
2777.343750	-71.858627
2783.203125	-71.157104
2789.062500	-74.374214
2794.921875	-75.334290
2800.781250	-74.046082
2806.640625	-72.668495
2812.500000	-70.668610
2818.359375	-71.503548
2824.218750	-71.528946
2830.078125	-69.722534
2835.937500	-69.059059
2841.796875	-70.547546
2847.656250	-71.205078
2853.515625	-72.012939
2859.375000	-75.263916
2865.234375	-78.593834
2871.093750	-81.336365
2876.953125	-80.408516
2882.812500	-79.205345
2888.671875	-77.742706
2894.531250	-76.860046
2900.390625	-78.838020
2906.250000	-77.459259
2912.109375	-78.515724
2917.968750	-76.460884
2923.828125	-76.621162
2929.687500	-78.386314
2935.546875	-80.572266
2941.406250	-80.614700
2947.265625	-81.214462
2953.125000	-82.932175
2958.984375	-81.219734
2964.843750	-77.952980
2970.703125	-73.237427
2976.562500	-73.087006
2982.421875	-72.852509
2988.281250	-72.034576
2994.140625	-72.578972
3000.000000	-71.190376
3005.859375	-75.288933
3011.718750	-75.443741
3017.578125	-67.503128
3023.437500	-67.515244
3029.296875	-76.288612
3035.156250	-73.924820
3041.015625	-76.107803
3046.875000	-81.264343
3052.734375	-78.590897
3058.593750	-76.073860
3064.453125	-73.074944
3070.312500	-71.037132
3076.171875	-68.166481
3082.031250	-68.478127
3087.890625	-67.378860
3093.750000	-65.791389
3099.609375	-65.357010
3105.468750	-55.855705
3111.328125	-48.016991
3117.187500	-45.053173
3123.046875	-43.783424
3128.906250	-39.924362
3134.765625	-41.093670
3140.625000	-50.463387
3146.484375	-58.965416
3152.343750	-59.457920
3158.203125	-60.690922
3164.062500	-60.986206
3169.921875	-61.686687
3175.781250	-62.356613
3181.640625	-61.086758
3187.500000	-61.340168
3193.359375	-63.218121
3199.218750	-61.396946
3205.078125	-61.502808
3210.937500	-61.863140
3216.796875	-66.050514
3222.656250	-66.927856
3228.515625	-65.656693
3234.375000	-68.270676
3240.234375	-65.510048
3246.093750	-63.986279
3251.953125	-66.135925
3257.812500	-66.296272
3263.671875	-65.822617
3269.531250	-66.771484
3275.390625	-64.276093
3281.250000	-60.968372
3287.109375	-61.547173
3292.968750	-59.856941
3298.828125	-60.400688
3304.687500	-69.200912
3310.546875	-70.903893
3316.406250	-62.346226
3322.265625	-60.725815
3328.125000	-60.548687
3333.984375	-60.330402
3339.843750	-60.799664
3345.703125	-61.513603
3351.562500	-61.914608
3357.421875	-63.391907
3363.281250	-70.815948
3369.140625	-69.561783
3375.000000	-70.076309
3380.859375	-72.877602
3386.718750	-73.997017
3392.578125	-74.261909
3398.437500	-73.838097
3404.296875	-73.362778
3410.156250	-73.824623
3416.015625	-71.827354
3421.875000	-68.671806
3427.734375	-66.157066
3433.593750	-62.473804
3439.453125	-63.718060
3445.312500	-66.303902
3451.171875	-67.870163
3457.031250	-67.171883
3462.890625	-67.673508
3468.750000	-70.593613
3474.609375	-70.052513
3480.468750	-66.534531
3486.328125	-67.525032
3492.187500	-68.909988
3498.046875	-68.090988
3503.906250	-66.284103
3509.765625	-64.806297
3515.625000	-64.891335
3521.484375	-64.631378
3527.343750	-65.824043
3533.203125	-64.764992
3539.062500	-61.581146
3544.921875	-66.249542
3550.781250	-51.946285
3556.640625	-45.774269
3562.500000	-45.325634
3568.359375	-45.788837
3574.218750	-42.768497
3580.078125	-41.409554
3585.937500	-46.886662
3591.796875	-59.085213
3597.656250	-63.986443
3603.515625	-65.962105
3609.375000	-70.078911
3615.234375	-71.230614
3621.093750	-72.043999
3626.953125	-76.854866
3632.812500	-74.447289
3638.671875	-75.812485
3644.531250	-78.973312
3650.390625	-75.733208
3656.250000	-72.373489
3662.109375	-71.967201
3667.968750	-69.290169
3673.828125	-67.696709
3679.687500	-71.510620
3685.546875	-67.227951
3691.406250	-63.333439
3697.265625	-62.070751
3703.125000	-65.635742
3708.984375	-66.287888
3714.843750	-66.938347
3720.703125	-68.084198
3726.562500	-67.239906
3732.421875	-70.097900
3738.281250	-69.325218
3744.140625	-63.981171
3750.000000	-63.325428
3755.859375	-64.150368
3761.718750	-63.587418
3767.578125	-64.529541
3773.437500	-64.753281
3779.296875	-64.367500
3785.156250	-66.875809
3791.015625	-69.695221
3796.875000	-69.927757
3802.734375	-69.350380
3808.593750	-72.271965
3814.453125	-73.973564
3820.312500	-77.182915
3826.171875	-78.035339
3832.031250	-76.309952
3837.890625	-74.891571
3843.750000	-72.382736
3849.609375	-70.656258
3855.468750	-71.994354
3861.328125	-69.808960
3867.187500	-72.533485
3873.046875	-77.171791
3878.906250	-77.129745
3884.765625	-75.558563
3890.625000	-74.013840
3896.484375	-73.048393
3902.343750	-73.110703
3908.203125	-74.067200
3914.062500	-76.605728
3919.921875	-74.660133
3925.781250	-73.017395
3931.640625	-75.109634
3937.500000	-72.902512
3943.359375	-69.485283
3949.218750	-68.127472
3955.078125	-69.774467
3960.937500	-70.875648
3966.796875	-71.501175
3972.656250	-71.507645
3978.515625	-67.350159
3984.375000	-62.562336
3990.234375	-59.169724
3996.093750	-43.979759
4001.953125	-41.107998
4007.812500	-44.067833
4013.671875	-46.033550
4019.531250	-46.540638
4025.390625	-44.617485
4031.250000	-48.074081
4037.109375	-59.743729
4042.968750	-64.519852
4048.828125	-66.970978
4054.687500	-72.651482
4060.546875	-74.978867
4066.406250	-73.730133
4072.265625	-75.303604
4078.125000	-78.296356
4083.984375	-79.664101
4089.843750	-85.256088
4095.703125	-86.723900
4101.562500	-84.735344
4107.421875	-82.414848
4113.281250	-80.016060
4119.140625	-79.862511
4125.000000	-79.047081
4130.859375	-77.948540
4136.718750	-77.626450
4142.578125	-77.942032
4148.437500	-80.715775
4154.296875	-80.462013
4160.156250	-80.302208
4166.015625	-79.311134
4171.875000	-79.017952
4177.734375	-78.909149
4183.593750	-78.607208
4189.453125	-77.988693
4195.312500	-79.440186
4201.171875	-83.341499
4207.031250	-81.110130
4212.890625	-82.255707
4218.750000	-83.556000
4224.609375	-88.094383
4230.468750	-89.971321
4236.328125	-88.618752
4242.187500	-83.953156
4248.046875	-83.239594
4253.906250	-86.735046
4259.765625	-85.029930
4265.625000	-86.975815
4271.484375	-84.854362
4277.343750	-83.054405
4283.203125	-82.029839
4289.062500	-81.357437
4294.921875	-81.040733
4300.781250	-82.225548
4306.640625	-80.870880
4312.500000	-80.749420
4318.359375	-82.935707
4324.218750	-85.312576
4330.078125	-84.658974
4335.937500	-85.866341
4341.796875	-87.507652
4347.656250	-90.144562
4353.515625	-90.358551
4359.375000	-87.521957
4365.234375	-84.403091
4371.093750	-82.769997
4376.953125	-84.932838
4382.812500	-85.226608
4388.671875	-80.916832
4394.531250	-79.683456
4400.390625	-78.593506
4406.250000	-75.912956
4412.109375	-75.229836
4417.968750	-77.620247
4423.828125	-76.643555
4429.687500	-68.104523
4435.546875	-61.683372
4441.406250	-48.053471
4447.265625	-45.646534
4453.125000	-47.665710
4458.984375	-49.776371
4464.843750	-53.808712
4470.703125	-53.378323
4476.562500	-54.432995
4482.421875	-62.075218
4488.281250	-68.371986
4494.140625	-68.697075
4500.000000	-72.619469
4505.859375	-74.495903
4511.718750	-74.820351
4517.578125	-75.146461
4523.437500	-77.242493
4529.296875	-80.057426
4535.156250	-79.206551
4541.015625	-82.026527
4546.875000	-80.958275
4552.734375	-78.223785
4558.593750	-79.829117
4564.453125	-81.572136
4570.312500	-83.559052
4576.171875	-84.734009
4582.031250	-88.316338
4587.890625	-90.583717
4593.750000	-86.142975
4599.609375	-84.807732
4605.468750	-84.368889
4611.328125	-85.434853
4617.187500	-89.058495
4623.046875	-89.089027
4628.906250	-88.526375
4634.765625	-85.971657
4640.625000	-83.838120
4646.484375	-84.431427
4652.343750	-88.643402
4658.203125	-89.359192
4664.062500	-91.694847
4669.921875	-94.162376
4675.781250	-91.357864
4681.640625	-92.701164
4687.500000	-92.752472
4693.359375	-92.268990
4699.218750	-96.786201
4705.078125	-94.773003
4710.937500	-92.057709
4716.796875	-91.520782
4722.656250	-92.336586
4728.515625	-94.662186
4734.375000	-96.759636
4740.234375	-94.677879
4746.093750	-90.443451
4751.953125	-87.236740
4757.812500	-86.316818
4763.671875	-87.183861
4769.531250	-92.559128
4775.390625	-92.480339
4781.250000	-91.029472
4787.109375	-91.728287
4792.968750	-89.141663
4798.828125	-86.284027
4804.687500	-84.152115
4810.546875	-80.077438
4816.406250	-78.702164
4822.265625	-77.852188
4828.125000	-76.840225
4833.984375	-76.982567
4839.843750	-78.107506
4845.703125	-80.794159
4851.562500	-76.677071
4857.421875	-75.545319
4863.281250	-78.693665
4869.140625	-80.301147
4875.000000	-74.373367
4880.859375	-66.578163
4886.718750	-55.331699
4892.578125	-54.178219
4898.437500	-56.834297
4904.296875	-57.641930
4910.156250	-59.527817
4916.015625	-55.303318
4921.875000	-54.093998
4927.734375	-59.508842
4933.593750	-71.598740
4939.453125	-73.684654
4945.312500	-80.013298
4951.171875	-86.533569
4957.031250	-83.796555
4962.890625	-82.201180
4968.750000	-84.449715
4974.609375	-87.819565
4980.468750	-86.113525
4986.328125	-87.458466
4992.187500	-88.027557
4998.046875	-87.865303
5003.906250	-89.159637
5009.765625	-89.090714
5015.625000	-86.260216
5021.484375	-84.211929
5027.343750	-84.470772
5033.203125	-84.001297
5039.062500	-86.532906
5044.921875	-89.686638
5050.781250	-84.850502
5056.640625	-85.991905
5062.500000	-87.714386
5068.359375	-88.179764
5074.218750	-91.701157
5080.078125	-95.751076
5085.937500	-92.276398
5091.796875	-90.227432
5097.656250	-91.151749
5103.515625	-92.707939
5109.375000	-90.192932
5115.234375	-90.029449
5121.093750	-90.983650
5126.953125	-90.709785
5132.812500	-87.007446
5138.671875	-89.150543
5144.531250	-92.594803
5150.390625	-95.665138
5156.250000	-94.075867
5162.109375	-93.115112
5167.968750	-90.224747
5173.828125	-91.528831
5179.687500	-90.461487
5185.546875	-92.146645
5191.406250	-94.133392
5197.265625	-92.535110
5203.125000	-91.209076
5208.984375	-92.770706
5214.843750	-93.265602
5220.703125	-92.979065
5226.562500	-93.994171
5232.421875	-93.792061
5238.281250	-94.306007
5244.140625	-92.857574
5250.000000	-91.735092
5255.859375	-89.073380
5261.718750	-89.966873
5267.578125	-91.595818
5273.437500	-91.177315
5279.296875	-87.068314
5285.156250	-83.910332
5291.015625	-82.892181
5296.875000	-77.633141
5302.734375	-78.369743
5308.593750	-81.523216
5314.453125	-87.732941
5320.312500	-81.579163
5326.171875	-63.106155
5332.031250	-55.395851
5337.890625	-57.159340
5343.750000	-65.543068
5349.609375	-71.411682
5355.468750	-73.040741
5361.328125	-67.406532
5367.187500	-63.076725
5373.046875	-62.422604
5378.906250	-67.567574
5384.765625	-77.901939
5390.625000	-80.979790
5396.484375	-84.335915
5402.343750	-85.075211
5408.203125	-81.679649
5414.062500	-83.354324
5419.921875	-85.358025
5425.781250	-86.630890
5431.640625	-83.678375
5437.500000	-83.393463
5443.359375	-89.881439
5449.218750	-86.757629
5455.078125	-84.833260
5460.937500	-86.817215
5466.796875	-87.176628
5472.656250	-87.120964
5478.515625	-86.155296
5484.375000	-84.689819
5490.234375	-85.918716
5496.093750	-86.081612
5501.953125	-89.437004
5507.812500	-84.026161
5513.671875	-85.779518
5519.531250	-87.794159
5525.390625	-88.458900
5531.250000	-87.175690
5537.109375	-86.444763
5542.968750	-85.826935
5548.828125	-87.113548
5554.687500	-85.570297
5560.546875	-89.596512
5566.406250	-88.846817
5572.265625	-86.624565
5578.125000	-86.296692
5583.984375	-88.549973
5589.843750	-87.999939
5595.703125	-84.060150
5601.562500	-84.979332
5607.421875	-85.602066
5613.281250	-82.824524
5619.140625	-82.431976
5625.000000	-85.971725
5630.859375	-86.143127
5636.718750	-88.147812
5642.578125	-91.426323
5648.437500	-89.440437
5654.296875	-88.148705
5660.156250	-86.454567
5666.015625	-86.019089
5671.875000	-83.288269
5677.734375	-82.738396
5683.593750	-82.650467
5689.453125	-80.300697
5695.312500	-80.824028
5701.171875	-80.190514
5707.031250	-80.769173
5712.890625	-81.264778
5718.750000	-82.025177
5724.609375	-80.990562
5730.468750	-84.147102
5736.328125	-85.765350
5742.187500	-86.126205
5748.046875	-87.805397
5753.906250	-86.409470
5759.765625	-88.093933
5765.625000	-82.102440
5771.484375	-65.583153
5777.343750	-59.668846
5783.203125	-61.844395
5789.062500	-66.942253
5794.921875	-72.779449
5800.781250	-77.084114
5806.640625	-72.306213
5812.500000	-66.705032
5818.359375	-65.187080
5824.218750	-70.218742
5830.078125	-80.199539
5835.937500	-80.118225
5841.796875	-79.976875
5847.656250	-81.537231
5853.515625	-83.169449
5859.375000	-80.825218
5865.234375	-81.605965
5871.093750	-82.488304
5876.953125	-82.381889
5882.812500	-82.840347
5888.671875	-85.276970
5894.531250	-89.299149
5900.390625	-87.184143
5906.250000	-86.806244
5912.109375	-86.555840
5917.968750	-86.049767
5923.828125	-86.119896
5929.687500	-85.170647
5935.546875	-85.114929
5941.406250	-89.750893
5947.265625	-90.927193
5953.125000	-90.537491
5958.984375	-93.531296
5964.843750	-88.793190
5970.703125	-88.681915
5976.562500	-88.258896
5982.421875	-89.784462
5988.281250	-91.129593
5994.140625	-89.906898
6000.000000	-86.476265
6005.859375	-89.819237
6011.718750	-89.822319
6017.578125	-93.665688
6023.437500	-88.498558
6029.296875	-88.664795
6035.156250	-91.970772
6041.015625	-92.958687
6046.875000	-89.304832
6052.734375	-93.327599
6058.593750	-94.853165
6064.453125	-93.162483
6070.312500	-94.947479
6076.171875	-98.108971
6082.031250	-93.189384
6087.890625	-95.642975
6093.750000	-98.464622
6099.609375	-94.832161
6105.468750	-95.030396
6111.328125	-95.905968
6117.187500	-95.747147
6123.046875	-93.791367
6128.906250	-91.387352
6134.765625	-90.096634
6140.625000	-92.292442
6146.484375	-96.989334
6152.343750	-96.171379
6158.203125	-98.179337
6164.062500	-94.115150
6169.921875	-92.180283
6175.781250	-93.410355
6181.640625	-91.730965
6187.500000	-93.514313
6193.359375	-89.287445
6199.218750	-87.056618
6205.078125	-89.241791
6210.937500	-77.296555
6216.796875	-64.755928
6222.656250	-61.947273
6228.515625	-68.645569
6234.375000	-77.192894
6240.234375	-74.789963
6246.093750	-76.672493
6251.953125	-75.418991
6257.812500	-73.461655
6263.671875	-71.257446
6269.531250	-75.058380
6275.390625	-87.541672
6281.250000	-87.967377
6287.109375	-84.626709
6292.968750	-86.140877
6298.828125	-87.131721
6304.687500	-86.074539
6310.546875	-89.013786
6316.406250	-87.373604
6322.265625	-86.722008
6328.125000	-88.899025
6333.984375	-91.261765
6339.843750	-92.733429
6345.703125	-91.521454
6351.562500	-91.352760
6357.421875	-92.377029
6363.281250	-87.437737
6369.140625	-86.675644
6375.000000	-88.707855
6380.859375	-88.266937
6386.718750	-88.241646
6392.578125	-88.001785
6398.437500	-87.869736
6404.296875	-86.194542
6410.156250	-85.306969
6416.015625	-86.548668
6421.875000	-88.890709
6427.734375	-91.463348
6433.593750	-91.795151
6439.453125	-88.279701
6445.312500	-86.314743
6451.171875	-87.192909
6457.031250	-88.999374
6462.890625	-90.624031
6468.750000	-86.379211
6474.609375	-90.475113
6480.468750	-94.428749
6486.328125	-91.924736
6492.187500	-89.478065
6498.046875	-90.208099
6503.906250	-86.551559
6509.765625	-86.054329
6515.625000	-86.698486
6521.484375	-86.120689
6527.343750	-87.621536
6533.203125	-86.352051
6539.062500	-84.797127
6544.921875	-85.550552
6550.781250	-86.457878
6556.640625	-90.469978
6562.500000	-86.542038
6568.359375	-86.428375
6574.218750	-88.022766
6580.078125	-84.649948
6585.937500	-85.511467
6591.796875	-87.024376
6597.656250	-87.273865
6603.515625	-85.465981
6609.375000	-85.813477
6615.234375	-85.285896
6621.093750	-84.662918
6626.953125	-86.897949
6632.812500	-84.640083
6638.671875	-84.240158
6644.531250	-82.980400
6650.390625	-82.561760
6656.250000	-85.660942
6662.109375	-72.447830
6667.968750	-70.313385
6673.828125	-74.019447
6679.687500	-72.924202
6685.546875	-70.630440
6691.406250	-72.327156
6697.265625	-74.631516
6703.125000	-75.665154
6708.984375	-69.458618
6714.843750	-69.111053
6720.703125	-75.911751
6726.562500	-85.273590
6732.421875	-86.674240
6738.281250	-87.121864
6744.140625	-90.551567
6750.000000	-88.872871
6755.859375	-89.531792
6761.718750	-86.571594
6767.578125	-86.562714
6773.437500	-90.387962
6779.296875	-87.737793
6785.156250	-87.368706
6791.015625	-85.814545
6796.875000	-84.430084
6802.734375	-85.220505
6808.593750	-86.656242
6814.453125	-90.941200
6820.312500	-88.164963
6826.171875	-87.031754
6832.031250	-87.105064
6837.890625	-86.932297
6843.750000	-90.464104
6849.609375	-86.722313
6855.468750	-85.610123
6861.328125	-84.732544
6867.187500	-86.598000
6873.046875	-89.158508
6878.906250	-89.490425
6884.765625	-84.759354
6890.625000	-81.941429
6896.484375	-83.171005
6902.343750	-84.257309
6908.203125	-84.246475
6914.062500	-84.423439
6919.921875	-86.061623
6925.781250	-86.905510
6931.640625	-85.949120
6937.500000	-83.245255
6943.359375	-84.446556
6949.218750	-86.981682
6955.078125	-85.084244
6960.937500	-85.914246
6966.796875	-88.673729
6972.656250	-83.670570
6978.515625	-84.759407
6984.375000	-80.513046
6990.234375	-78.651672
6996.093750	-79.370949
7001.953125	-79.883789
7007.812500	-79.185272
7013.671875	-79.422913
7019.531250	-82.090263
7025.390625	-80.228386
7031.250000	-81.675606
7037.109375	-84.176926
7042.968750	-84.843811
7048.828125	-85.104881
7054.687500	-81.794662
7060.546875	-80.341583
7066.406250	-80.683838
7072.265625	-83.580872
7078.125000	-87.358063
7083.984375	-84.317284
7089.843750	-84.350723
7095.703125	-78.735458
7101.562500	-79.723763
7107.421875	-63.709751
7113.281250	-61.511833
7119.140625	-65.185684
7125.000000	-65.945587
7130.859375	-63.019894
7136.718750	-64.186996
7142.578125	-64.379204
7148.437500	-63.401913
7154.296875	-64.494743
7160.156250	-65.544586
7166.015625	-72.987259
7171.875000	-78.532776
7177.734375	-79.923286
7183.593750	-81.452339
7189.453125	-83.460365
7195.312500	-83.584641
7201.171875	-82.313293
7207.031250	-83.631454
7212.890625	-86.024902
7218.750000	-84.244484
7224.609375	-84.981110
7230.468750	-85.744049
7236.328125	-85.916473
7242.187500	-88.313469
7248.046875	-90.432648
7253.906250	-89.075470
7259.765625	-90.238838
7265.625000	-84.799706
7271.484375	-85.669228
7277.343750	-87.642090
7283.203125	-86.814926
7289.062500	-90.625664
7294.921875	-85.460602
7300.781250	-85.027382
7306.640625	-85.870857
7312.500000	-86.527802
7318.359375	-85.386192
7324.218750	-82.989418
7330.078125	-85.082710
7335.937500	-85.025864
7341.796875	-84.288696
7347.656250	-85.944160
7353.515625	-85.785309
7359.375000	-86.585182
7365.234375	-88.532860
7371.093750	-92.961281
7376.953125	-87.337944
7382.812500	-84.591278
7388.671875	-85.674248
7394.531250	-87.997238
7400.390625	-92.789459
7406.250000	-88.430611
7412.109375	-87.907417
7417.968750	-91.386848
7423.828125	-89.902367
7429.687500	-85.939133
7435.546875	-83.868614
7441.406250	-83.137527
7447.265625	-83.348099
7453.125000	-85.022491
7458.984375	-86.326752
7464.843750	-90.750931
7470.703125	-89.139748
7476.562500	-86.537796
7482.421875	-89.543701
7488.281250	-90.314735
7494.140625	-88.298637
7500.000000	-87.505302
7505.859375	-88.733673
7511.718750	-89.649796
7517.578125	-88.119247
7523.437500	-87.296204
7529.296875	-88.610512
7535.156250	-85.787209
7541.015625	-84.797272
7546.875000	-84.743713
7552.734375	-84.331421
7558.593750	-81.072525
7564.453125	-80.677872
7570.312500	-76.334091
7576.171875	-76.242104
7582.031250	-79.053001
7587.890625	-80.364113
7593.750000	-75.568253
7599.609375	-73.837250
7605.468750	-72.646652
7611.328125	-76.071068
7617.187500	-79.470253
7623.046875	-83.215797
7628.906250	-84.069458
7634.765625	-87.831543
7640.625000	-86.693420
7646.484375	-85.537010
7652.343750	-88.016312
7658.203125	-88.897530
7664.062500	-90.322853
7669.921875	-93.376854
7675.781250	-92.771088
7681.640625	-88.780579
7687.500000	-88.900032
7693.359375	-93.294785
7699.218750	-92.011551
7705.078125	-91.580391
7710.937500	-88.955681
7716.796875	-88.622810
7722.656250	-90.123413
7728.515625	-88.876503
7734.375000	-90.356346
7740.234375	-88.594810
7746.093750	-90.683289
7751.953125	-91.041931
7757.812500	-91.358490
7763.671875	-91.940392
7769.531250	-91.380943
7775.390625	-91.303070
7781.250000	-91.715698
7787.109375	-92.346535
7792.968750	-92.695961
7798.828125	-93.466949
7804.687500	-92.686836
7810.546875	-95.889473
7816.406250	-96.882866
7822.265625	-91.226219
7828.125000	-90.486320
7833.984375	-89.185989
7839.843750	-89.250122
7845.703125	-93.121719
7851.562500	-93.737572
7857.421875	-94.154129
7863.281250	-95.560318
7869.140625	-91.769875
7875.000000	-91.699020
7880.859375	-91.185989
7886.718750	-91.217583
7892.578125	-89.713303
7898.437500	-90.463257
7904.296875	-92.593895
7910.156250	-94.066917
7916.015625	-89.625473
7921.875000	-91.241310
7927.734375	-92.969910
7933.593750	-90.963943
7939.453125	-90.908142
7945.312500	-91.527618
7951.171875	-94.468582
7957.031250	-90.984962
7962.890625	-89.460739
7968.750000	-89.498154
7974.609375	-91.449837
7980.468750	-89.544746
7986.328125	-83.342644
7992.187500	-78.056007
7998.046875	-74.034966
8003.906250	-72.375748
8009.765625	-73.533028
8015.625000	-76.231750
8021.484375	-78.027191
8027.343750	-80.379257
8033.203125	-84.312698
8039.062500	-78.107414
8044.921875	-71.113403
8050.781250	-66.840027
8056.640625	-68.764755
8062.500000	-77.881279
8068.359375	-79.890839
8074.218750	-83.507095
8080.078125	-84.499756
8085.937500	-86.272400
8091.796875	-86.389450
8097.656250	-84.755463
8103.515625	-84.017845
8109.375000	-86.347450
8115.234375	-87.989906
8121.093750	-90.138077
8126.953125	-89.823799
8132.812500	-88.506027
8138.671875	-90.846924
8144.531250	-92.705986
8150.390625	-91.080154
8156.250000	-92.490517
8162.109375	-92.941093
8167.968750	-90.988235
8173.828125	-87.534531
8179.687500	-85.651970
8185.546875	-88.229607
8191.406250	-90.654762
8197.265625	-88.130890
8203.125000	-86.717400
8208.984375	-89.378311
8214.843750	-90.072128
8220.703125	-93.503799
8226.562500	-90.687332
8232.421875	-91.207031
8238.281250	-91.917320
8244.140625	-91.283791
8250.000000	-90.406853
8255.859375	-93.937935
8261.718750	-94.502213
8267.578125	-94.939522
8273.437500	-92.890091
8279.296875	-88.591835
8285.156250	-89.406403
8291.015625	-90.134048
8296.875000	-89.889816
8302.734375	-88.446953
8308.593750	-89.688004
8314.453125	-92.724968
8320.312500	-92.199310
8326.171875	-90.042221
8332.031250	-89.655754
8337.890625	-89.921432
8343.750000	-91.318283
8349.609375	-92.024757
8355.468750	-92.069336
8361.328125	-92.181061
8367.187500	-89.411629
8373.046875	-90.276215
8378.906250	-93.169876
8384.765625	-88.450676
8390.625000	-87.852699
8396.484375	-89.893280
8402.343750	-88.639992
8408.203125	-90.671638
8414.062500	-88.145775
8419.921875	-87.004501
8425.781250	-87.793869
8431.640625	-87.355019
8437.500000	-87.673752
8443.359375	-84.600464
8449.218750	-80.999001
8455.078125	-82.628044
8460.937500	-84.654175
8466.796875	-85.678986
8472.656250	-84.035294
8478.515625	-86.862518
8484.375000	-81.922447
8490.234375	-76.818054
8496.093750	-71.875885
8501.953125	-71.211113
8507.812500	-74.918182
8513.671875	-82.078896
8519.531250	-90.109459
8525.390625	-86.324356
8531.250000	-91.895638
8537.109375	-92.987419
8542.968750	-94.047310
8548.828125	-92.289185
8554.687500	-92.471909
8560.546875	-95.585152
8566.406250	-95.651344
8572.265625	-92.995514
8578.125000	-92.787514
8583.984375	-96.405426
8589.843750	-97.569550
8595.703125	-93.886063
8601.562500	-92.100105
8607.421875	-92.472397
8613.281250	-94.121399
8619.140625	-92.003685
8625.000000	-95.418144
8630.859375	-93.724426
8636.718750	-92.537567
8642.578125	-90.214203
8648.437500	-89.961708
8654.296875	-93.137711
8660.156250	-91.261765
8666.015625	-91.481392
8671.875000	-90.483635
8677.734375	-93.551163
8683.593750	-91.871758
8689.453125	-91.581024
8695.312500	-90.167915
8701.171875	-90.460320
8707.031250	-93.180443
8712.890625	-95.398819
8718.750000	-91.624863
8724.609375	-89.790146
8730.468750	-90.594017
8736.328125	-93.809006
8742.187500	-93.986847
8748.046875	-89.745811
8753.906250	-90.640625
8759.765625	-93.610634
8765.625000	-90.214798
8771.484375	-90.148178
8777.343750	-86.960983
8783.203125	-86.515068
8789.062500	-87.840477
8794.921875	-90.552452
8800.781250	-88.757912
8806.640625	-86.522507
8812.500000	-84.469856
8818.359375	-85.616943
8824.218750	-90.155922
8830.078125	-89.498039
8835.937500	-88.690269
8841.796875	-85.750305
8847.656250	-86.042984
8853.515625	-88.998863
8859.375000	-86.460266
8865.234375	-87.042801
8871.093750	-85.411247
8876.953125	-84.879768
8882.812500	-73.215233
8888.671875	-66.507668
8894.531250	-68.436295
8900.390625	-71.478020
8906.250000	-75.005440
8912.109375	-79.492081
8917.968750	-78.096062
8923.828125	-79.074898
8929.687500	-79.236710
8935.546875	-76.585892
8941.406250	-72.945496
8947.265625	-70.055618
8953.125000	-69.107956
8958.984375	-73.344788
8964.843750	-85.109749
8970.703125	-81.950424
8976.562500	-84.292740
8982.421875	-88.868736
8988.281250	-88.432617
8994.140625	-86.405533
9000.000000	-85.570015
9005.859375	-88.245949
9011.718750	-90.850464
9017.578125	-95.125473
9023.437500	-93.896103
9029.296875	-91.168007
9035.156250	-92.740471
9041.015625	-92.434097
9046.875000	-90.183510
9052.734375	-87.866371
9058.593750	-86.697769
9064.453125	-88.380943
9070.312500	-90.547966
9076.171875	-88.308739
9082.031250	-87.422226
9087.890625	-89.578224
9093.750000	-89.882095
9099.609375	-92.068230
9105.468750	-92.291931
9111.328125	-93.849426
9117.187500	-93.962212
9123.046875	-90.002380
9128.906250	-93.279457
9134.765625	-91.931183
9140.625000	-89.414932
9146.484375	-91.293488
9152.343750	-94.102753
9158.203125	-95.415085
9164.062500	-90.866035
9169.921875	-89.427971
9175.781250	-91.069710
9181.640625	-92.255867
9187.500000	-93.294380
9193.359375	-94.121849
9199.218750	-96.620331
9205.078125	-96.221313
9210.937500	-93.070503
9216.796875	-93.090294
9222.656250	-95.019501
9228.515625	-93.281105
9234.375000	-93.929588
9240.234375	-97.733887
9246.093750	-94.864998
9251.953125	-92.825363
9257.812500	-90.132790
9263.671875	-90.807526
9269.531250	-93.688766
9275.390625	-94.599777
9281.250000	-92.873871
9287.109375	-89.134155
9292.968750	-88.707428
9298.828125	-91.594284
9304.687500	-89.943947
9310.546875	-88.556923
9316.406250	-87.513641
9322.265625	-83.799637
9328.125000	-72.188393
9333.984375	-70.204460
9339.843750	-74.928711
9345.703125	-72.522820
9351.562500	-72.490829
9357.421875	-74.439613
9363.281250	-76.919174
9369.140625	-76.979141
9375.000000	-77.294342
9380.859375	-76.285553
9386.718750	-74.767014
9392.578125	-75.408600
9398.437500	-72.963470
9404.296875	-73.210770
9410.156250	-79.993286
9416.015625	-83.953026
9421.875000	-82.676186
9427.734375	-88.655014
9433.593750	-89.531410
9439.453125	-88.684837
9445.312500	-87.915871
9451.171875	-88.849197
9457.031250	-90.655174
9462.890625	-92.364151
9468.750000	-91.799805
9474.609375	-88.893929
9480.468750	-89.741669
9486.328125	-92.110016
9492.187500	-90.865707
9498.046875	-87.052849
9503.906250	-83.544556
9509.765625	-83.296913
9515.625000	-86.381729
9521.484375	-86.858376
9527.343750	-85.767448
9533.203125	-87.689240
9539.062500	-90.405235
9544.921875	-91.585861
9550.781250	-90.812904
9556.640625	-88.839775
9562.500000	-93.372566
9568.359375	-89.844765
9574.218750	-89.289200
9580.078125	-92.413170
9585.937500	-89.895767
9591.796875	-89.072693
9597.656250	-89.608772
9603.515625	-91.069656
9609.375000	-93.270416
9615.234375	-88.303215
9621.093750	-89.564301
9626.953125	-92.670433
9632.812500	-92.474014
9638.671875	-93.819420
9644.531250	-93.358452
9650.390625	-92.581505
9656.250000	-90.638000
9662.109375	-90.833763
9667.968750	-93.210564
9673.828125	-94.270981
9679.687500	-95.014618
9685.546875	-97.880348
9691.406250	-96.006111
9697.265625	-93.841568
9703.125000	-92.657204
9708.984375	-90.670456
9714.843750	-95.442963
9720.703125	-93.760765
9726.562500	-94.553261
9732.421875	-96.247566
9738.281250	-93.008560
9744.140625	-92.974335
9750.000000	-89.073753
9755.859375	-88.557220
9761.718750	-89.118103
9767.578125	-88.045242
9773.437500	-84.456039
9779.296875	-78.543129
9785.156250	-77.812912
9791.015625	-78.574287
9796.875000	-79.911766
9802.734375	-79.966713
9808.593750	-80.705307
9814.453125	-85.515785
9820.312500	-85.565544
9826.171875	-85.869499
9832.031250	-85.240707
9837.890625	-80.114120
9843.750000	-76.383636
9849.609375	-76.274063
9855.468750	-80.476273
9861.328125	-91.110428
9867.187500	-88.890137
9873.046875	-91.539711
9878.906250	-98.040710
9884.765625	-96.801193
9890.625000	-92.536476
9896.484375	-93.538643
9902.343750	-94.406807
9908.203125	-96.377007
9914.062500	-97.766129
9919.921875	-97.446487
9925.781250	-98.473373
9931.640625	-98.624786
9937.500000	-98.594872
9943.359375	-95.482819
9949.218750	-94.315933
9955.078125	-94.308334
9960.937500	-97.760262
9966.796875	-97.397369
9972.656250	-95.796112
9978.515625	-95.059494
9984.375000	-96.540237
9990.234375	-98.642159
9996.093750	-100.867195
10001.953125	-99.211006
10007.812500	-95.470337
10013.671875	-95.190346
10019.531250	-96.001511
10025.390625	-97.750000
10031.250000	-95.123055
10037.109375	-95.349457
10042.968750	-94.954781
10048.828125	-96.657349
10054.687500	-96.872017
10060.546875	-95.955925
10066.406250	-97.396545
10072.265625	-100.378738
10078.125000	-95.721382
10083.984375	-92.216972
10089.843750	-94.761444
10095.703125	-97.334068
10101.562500	-96.886833
10107.421875	-94.454163
10113.281250	-93.254059
10119.140625	-92.080414
10125.000000	-93.090881
10130.859375	-96.417686
10136.718750	-94.539124
10142.578125	-98.016090
10148.437500	-96.033356
10154.296875	-96.636635
10160.156250	-100.097443
10166.015625	-100.373093
10171.875000	-97.710648
10177.734375	-95.121086
10183.593750	-93.954025
10189.453125	-91.007042
10195.312500	-92.478073
10201.171875	-93.137451
10207.031250	-90.971382
10212.890625	-86.473740
10218.750000	-84.101051
10224.609375	-79.617645
10230.468750	-82.853935
10236.328125	-83.645706
10242.187500	-82.162102
10248.046875	-81.607620
10253.906250	-80.899986
10259.765625	-81.351585
10265.625000	-82.150787
10271.484375	-84.111862
10277.343750	-86.586838
10283.203125	-82.437790
10289.062500	-77.788223
10294.921875	-78.681290
10300.781250	-81.828400
10306.640625	-86.068100
10312.500000	-90.628975
10318.359375	-89.316597
10324.218750	-94.814972
10330.078125	-94.607521
10335.937500	-91.193954
10341.796875	-91.559692
10347.656250	-93.902374
10353.515625	-95.484100
10359.375000	-93.872246
10365.234375	-91.794548
10371.093750	-95.963219
10376.953125	-96.089149
10382.812500	-92.648109
10388.671875	-94.629395
10394.531250	-96.735016
10400.390625	-90.537384
10406.250000	-91.924515
10412.109375	-95.896393
10417.968750	-92.932388
10423.828125	-91.290573
10429.687500	-94.045990
10435.546875	-93.708031
10441.406250	-94.659874
10447.265625	-97.696770
10453.125000	-94.158768
10458.984375	-97.120621
10464.843750	-93.523575
10470.703125	-92.264977
10476.562500	-95.519798
10482.421875	-92.504868
10488.281250	-92.483406
10494.140625	-91.181488
10500.000000	-91.812309
10505.859375	-93.109116
10511.718750	-94.432495
10517.578125	-97.431694
10523.437500	-90.103889
10529.296875	-88.872810
10535.156250	-90.710365
10541.015625	-89.475868
10546.875000	-91.966148
10552.734375	-91.589767
10558.593750	-88.919388
10564.453125	-87.869469
10570.312500	-88.845108
10576.171875	-90.988777
10582.031250	-92.714554
10587.890625	-92.324524
10593.750000	-88.696014
10599.609375	-86.698112
10605.468750	-92.052162
10611.328125	-93.366547
10617.187500	-91.397659
10623.046875	-89.818985
10628.906250	-87.885956
10634.765625	-86.414597
10640.625000	-87.426125
10646.484375	-88.383553
10652.343750	-87.194199
10658.203125	-87.839394
10664.062500	-74.915909
10669.921875	-73.064598
10675.781250	-79.637543
10681.640625	-81.015068
10687.500000	-82.353180
10693.359375	-84.819382
10699.218750	-84.460732
10705.078125	-83.753151
10710.937500	-84.621635
10716.796875	-84.899834
10722.656250	-85.248329
10728.515625	-82.272568
10734.375000	-77.931862
10740.234375	-76.609894
10746.093750	-77.878334
10751.953125	-81.248207
10757.812500	-86.101807
10763.671875	-87.319405
10769.531250	-89.185173
10775.390625	-93.175964
10781.250000	-91.043495
10787.109375	-90.384773
10792.968750	-92.999802
10798.828125	-90.909363
10804.687500	-91.022408
10810.546875	-93.354538
10816.406250	-94.561317
10822.265625	-94.078156
10828.125000	-92.564705
10833.984375	-93.590736
10839.843750	-95.681717
10845.703125	-91.367683
10851.562500	-89.536659
10857.421875	-88.591537
10863.281250	-91.715622
10869.140625	-89.725121
10875.000000	-92.588959
10880.859375	-91.156593
10886.718750	-92.269005
10892.578125	-96.184158
10898.437500	-96.454926
10904.296875	-95.770264
10910.156250	-94.505051
10916.015625	-96.147568
10921.875000	-94.789650
10927.734375	-93.091911
10933.593750	-89.953850
10939.453125	-91.111832
10945.312500	-91.212502
10951.171875	-90.731079
10957.031250	-94.757004
10962.890625	-95.545265
10968.750000	-93.713661
10974.609375	-92.927101
10980.468750	-91.857864
10986.328125	-90.245354
10992.187500	-92.276344
10998.046875	-97.088753
11003.906250	-94.435242
11009.765625	-95.335114
11015.625000	-95.223106
11021.484375	-95.614639
11027.343750	-96.437569
11033.203125	-96.629494
11039.062500	-93.272354
11044.921875	-88.979912
11050.781250	-91.467857
11056.640625	-92.278793
11062.500000	-92.991402
11068.359375	-92.325172
11074.218750	-89.510864
11080.078125	-88.769424
11085.937500	-90.256775
11091.796875	-90.931946
11097.656250	-90.255852
11103.515625	-87.222809
11109.375000	-80.506538
11115.234375	-80.176559
11121.093750	-86.583939
11126.953125	-87.918144
11132.812500	-88.702805
11138.671875	-89.354584
11144.531250	-86.136703
11150.390625	-86.979309
11156.250000	-86.027763
11162.109375	-87.676910
11167.968750	-89.079659
11173.828125	-87.173889
11179.687500	-82.514153
11185.546875	-81.194077
11191.406250	-84.710144
11197.265625	-90.166237
11203.125000	-92.366013
11208.984375	-89.094597
11214.843750	-90.088127
11220.703125	-92.558922
11226.562500	-92.903313
11232.421875	-90.749939
11238.281250	-89.468224
11244.140625	-92.819191
11250.000000	-93.855965
11255.859375	-92.481522
11261.718750	-91.942818
11267.578125	-93.320084
11273.437500	-93.330276
11279.296875	-96.093086
11285.156250	-94.158226
11291.015625	-90.387772
11296.875000	-86.902222
11302.734375	-87.083687
11308.593750	-90.438896
11314.453125	-89.442795
11320.312500	-92.165100
11326.171875	-89.692833
11332.031250	-91.974197
11337.890625	-92.836060
11343.750000	-95.259865
11349.609375	-97.202126
11355.468750	-94.518616
11361.328125	-92.502441
11367.187500	-90.729485
11373.046875	-87.361816
11378.906250	-84.647285
11384.765625	-89.166229
11390.625000	-85.410240
11396.484375	-85.180359
11402.343750	-91.097885
11408.203125	-93.132965
11414.062500	-89.747231
11419.921875	-91.370529
11425.781250	-92.713173
11431.640625	-92.015419
11437.500000	-92.586395
11443.359375	-95.039185
11449.218750	-93.022232
11455.078125	-92.472794
11460.937500	-92.857941
11466.796875	-91.709984
11472.656250	-91.266304
11478.515625	-95.544350
11484.375000	-92.995712
11490.234375	-91.218651
11496.093750	-94.063431
11501.953125	-92.387917
11507.812500	-91.243050
11513.671875	-92.617615
11519.531250	-92.355713
11525.390625	-89.244308
11531.250000	-92.939110
11537.109375	-93.639008
11542.968750	-87.919998
11548.828125	-87.671219
11554.687500	-77.742355
11560.546875	-75.546272
11566.406250	-81.012451
11572.265625	-81.180130
11578.125000	-81.632660
11583.984375	-82.950180
11589.843750	-81.253510
11595.703125	-81.851265
11601.562500	-81.348953
11607.421875	-83.955475
11613.281250	-87.560547
11619.140625	-88.916389
11625.000000	-90.300308
11630.859375	-89.008392
11636.718750	-87.100494
11642.578125	-88.436150
11648.437500	-93.863380
11654.296875	-95.357994
11660.156250	-94.519295
11666.015625	-95.881790
11671.875000	-96.064468
11677.734375	-95.440338
11683.593750	-92.670868
11689.453125	-93.010445
11695.312500	-96.679909
11701.171875	-97.243752
11707.031250	-96.940315
11712.890625	-95.928871
11718.750000	-98.496552
11724.609375	-98.747139
11730.468750	-99.507988
11736.328125	-98.773369
11742.187500	-98.079765
11748.046875	-98.720100
11753.906250	-101.291603
11759.765625	-100.858040
11765.625000	-101.177002
11771.484375	-100.608505
11777.343750	-100.202469
11783.203125	-102.488724
11789.062500	-104.181404
11794.921875	-103.739960
11800.781250	-101.057106
11806.640625	-101.786964
11812.500000	-100.363686
11818.359375	-97.815842
11824.218750	-95.380821
11830.078125	-98.715637
11835.937500	-95.647980
11841.796875	-96.279503
11847.656250	-101.792793
11853.515625	-104.125298
11859.375000	-100.243599
11865.234375	-101.712013
11871.093750	-102.775047
11876.953125	-100.607208
11882.812500	-100.483635
11888.671875	-97.776993
11894.531250	-96.113663
11900.390625	-97.908401
11906.250000	-96.809128
11912.109375	-95.568634
11917.968750	-96.821350
11923.828125	-98.235191
11929.687500	-96.276169
11935.546875	-97.222504
11941.406250	-101.798943
11947.265625	-95.527527
11953.125000	-95.293427
11958.984375	-97.571884
11964.843750	-99.143494
11970.703125	-98.070961
11976.562500	-99.155304
11982.421875	-96.479317
11988.281250	-90.422371
11994.140625	-93.668793
12000.000000	-80.558662
12005.859375	-80.099388
12011.718750	-80.509499
12017.578125	-78.974297
12023.437500	-81.175903
12029.296875	-84.458633
12035.156250	-84.631073
12041.015625	-84.703560
12046.875000	-82.972679
12052.734375	-84.920067
12058.593750	-86.885353
12064.453125	-84.958267
12070.312500	-83.961685
12076.171875	-83.863281
12082.031250	-85.922066
12087.890625	-86.909485
12093.750000	-90.201538
12099.609375	-92.743347
12105.468750	-93.768883
12111.328125	-93.504868
12117.187500	-95.287949
12123.046875	-99.784264
12128.906250	-95.461418
12134.765625	-94.403297
12140.625000	-95.606277
12146.484375	-93.492485
12152.343750	-93.015663
12158.203125	-94.753571
12164.062500	-93.944809
12169.921875	-95.660347
12175.781250	-95.758308
12181.640625	-96.010704
12187.500000	-96.373886
12193.359375	-92.425560
12199.218750	-92.465820
12205.078125	-96.129936
12210.937500	-94.063278
12216.796875	-91.791374
12222.656250	-92.494339
12228.515625	-94.439545
12234.375000	-95.222084
12240.234375	-98.264931
12246.093750	-94.699333
12251.953125	-90.712860
12257.812500	-93.540382
12263.671875	-91.757034
12269.531250	-89.880226
12275.390625	-90.843498
12281.250000	-90.887764
12287.109375	-89.738930
12292.968750	-91.748062
12298.828125	-94.845161
12304.687500	-94.666679
12310.546875	-92.694527
12316.406250	-94.215981
12322.265625	-95.305016
12328.125000	-93.475914
12333.984375	-92.203789
12339.843750	-96.824661
12345.703125	-90.671051
12351.562500	-90.967361
12357.421875	-91.832924
12363.281250	-92.328453
12369.140625	-96.020569
12375.000000	-96.369843
12380.859375	-95.293442
12386.718750	-94.466415
12392.578125	-93.963959
12398.437500	-96.598122
12404.296875	-96.154182
12410.156250	-94.260803
12416.015625	-96.133507
12421.875000	-95.942635
12427.734375	-96.911766
12433.593750	-96.596619
12439.453125	-88.023315
12445.312500	-80.662628
12451.171875	-78.985535
12457.031250	-78.987526
12462.890625	-79.096123
12468.750000	-81.905121
12474.609375	-84.520058
12480.468750	-85.275909
12486.328125	-87.140686
12492.187500	-84.558266
12498.046875	-85.058716
12503.906250	-89.060371
12509.765625	-86.846550
12515.625000	-84.574478
12521.484375	-85.381721
12527.343750	-87.459114
12533.203125	-90.407204
12539.062500	-92.581741
12544.921875	-95.132935
12550.781250	-95.234314
12556.640625	-96.395493
12562.500000	-95.964378
12568.359375	-95.441292
12574.218750	-95.546776
12580.078125	-97.463303
12585.937500	-100.730865
12591.796875	-98.031876
12597.656250	-97.604584
12603.515625	-98.158615
12609.375000	-99.309006
12615.234375	-98.525429
12621.093750	-100.699646
12626.953125	-100.697792
12632.812500	-100.904015
12638.671875	-100.798149
12644.531250	-100.958885
12650.390625	-100.492851
12656.250000	-99.483101
12662.109375	-98.015129
12667.968750	-97.723953
12673.828125	-100.896194
12679.687500	-103.151299
12685.546875	-102.080147
12691.406250	-98.618843
12697.265625	-96.712677
12703.125000	-97.804199
12708.984375	-99.438805
12714.843750	-101.700600
12720.703125	-103.029594
12726.562500	-103.800461
12732.421875	-101.346443
12738.281250	-99.732658
12744.140625	-100.090881
12750.000000	-103.175026
12755.859375	-103.069923
12761.718750	-103.043198
12767.578125	-105.884880
12773.437500	-104.279434
12779.296875	-102.109528
12785.156250	-103.255562
12791.015625	-100.301155
12796.875000	-99.076363
12802.734375	-102.253929
12808.593750	-101.603569
12814.453125	-105.385086
12820.312500	-100.175392
12826.171875	-100.598511
12832.031250	-100.507843
12837.890625	-99.893883
12843.750000	-100.570221
12849.609375	-102.661880
12855.468750	-98.398125
12861.328125	-99.010017
12867.187500	-99.802780
12873.046875	-99.133049
12878.906250	-94.372330
12884.765625	-94.129929
12890.625000	-88.774094
12896.484375	-89.588524
12902.343750	-94.275475
12908.203125	-91.963852
12914.062500	-90.132462
12919.921875	-89.995445
12925.781250	-91.778755
12931.640625	-93.224586
12937.500000	-91.437088
12943.359375	-87.865593
12949.218750	-92.541634
12955.078125	-95.148842
12960.937500	-89.089325
12966.796875	-86.401466
12972.656250	-84.980759
12978.515625	-85.883476
12984.375000	-90.230576
12990.234375	-91.996956
12996.093750	-96.232475
13001.953125	-98.740128
13007.812500	-97.896904
13013.671875	-98.575157
13019.531250	-101.242691
13025.390625	-98.671265
13031.250000	-98.622528
13037.109375	-98.357857
13042.968750	-99.963928
13048.828125	-102.298241
13054.687500	-98.732346
13060.546875	-96.742081
13066.406250	-99.026482
13072.265625	-101.858124
13078.125000	-103.369164
13083.984375	-103.663872
13089.843750	-102.284676
13095.703125	-100.699364
13101.562500	-101.057892
13107.421875	-100.012360
13113.281250	-99.022652
13119.140625	-100.403145
13125.000000	-100.216331
13130.859375	-102.226364
13136.718750	-101.506714
13142.578125	-98.420876
13148.437500	-100.242630
13154.296875	-97.502960
13160.156250	-97.701431
13166.015625	-99.509743
13171.875000	-101.011208
13177.734375	-100.486076
13183.593750	-100.822044
13189.453125	-102.750526
13195.312500	-104.316017
13201.171875	-101.322800
13207.031250	-102.003403
13212.890625	-102.159981
13218.750000	-103.981865
13224.609375	-100.972061
13230.468750	-101.330238
13236.328125	-101.404892
13242.187500	-100.687363
13248.046875	-104.546532
13253.906250	-100.895248
13259.765625	-105.220207
13265.625000	-101.544106
13271.484375	-101.018158
13277.343750	-99.492668
13283.203125	-99.482048
13289.062500	-104.466927
13294.921875	-102.554306
13300.781250	-99.322044
13306.640625	-99.185410
13312.500000	-102.232292
13318.359375	-102.975807
13324.218750	-96.903580
13330.078125	-89.098396
13335.937500	-87.311607
13341.796875	-92.541870
13347.656250	-89.456985
13353.515625	-87.995926
13359.375000	-88.927002
13365.234375	-88.334732
13371.093750	-89.414078
13376.953125	-91.959953
13382.812500	-91.241852
13388.671875	-90.734695
13394.531250	-93.209900
13400.390625	-96.157394
13406.250000	-94.974403
13412.109375	-94.903458
13417.968750	-95.436752
13423.828125	-92.742653
13429.687500	-92.558167
13435.546875	-94.402847
13441.406250	-100.210312
13447.265625	-100.697929
13453.125000	-97.109238
13458.984375	-97.857674
13464.843750	-100.628929
13470.703125	-102.976868
13476.562500	-102.056129
13482.421875	-104.664696
13488.281250	-103.395538
13494.140625	-107.674820
13500.000000	-102.399635
13505.859375	-99.600571
13511.718750	-100.925117
13517.578125	-102.803764
13523.437500	-104.973328
13529.296875	-105.966866
13535.156250	-105.939568
13541.015625	-102.439713
13546.875000	-102.996651
13552.734375	-100.699265
13558.593750	-97.798462
13564.453125	-99.299278
13570.312500	-100.270454
13576.171875	-101.721275
13582.031250	-103.378151
13587.890625	-101.464790
13593.750000	-101.146568
13599.609375	-101.353386
13605.468750	-100.558746
13611.328125	-98.701187
13617.187500	-99.929337
13623.046875	-98.104797
13628.906250	-100.012497
13634.765625	-100.728004
13640.625000	-98.065338
13646.484375	-99.651779
13652.343750	-102.220146
13658.203125	-100.997154
13664.062500	-104.837601
13669.921875	-103.434753
13675.781250	-100.368080
13681.640625	-100.396454
13687.500000	-101.162018
13693.359375	-102.726555
13699.218750	-100.565407
13705.078125	-101.030281
13710.937500	-100.621185
13716.796875	-99.451904
13722.656250	-99.413528
13728.515625	-98.576408
13734.375000	-98.002197
13740.234375	-98.642014
13746.093750	-98.129723
13751.953125	-100.531143
13757.812500	-99.627609
13763.671875	-94.222275
13769.531250	-95.268570
13775.390625	-86.522102
13781.250000	-89.670364
13787.109375	-91.308327
13792.968750	-88.559807
13798.828125	-85.155899
13804.687500	-86.322639
13810.546875	-86.935867
13816.406250	-86.521355
13822.265625	-88.272263
13828.125000	-87.699661
13833.984375	-85.794724
13839.843750	-88.636909
13845.703125	-91.865166
13851.562500	-90.009232
13857.421875	-90.346115
13863.281250	-90.761047
13869.140625	-90.066719
13875.000000	-94.849777
13880.859375	-96.611145
13886.718750	-97.971519
13892.578125	-99.425819
13898.437500	-95.223946
13904.296875	-97.055077
13910.156250	-99.545502
13916.015625	-101.092407
13921.875000	-99.602249
13927.734375	-99.782288
13933.593750	-99.784157
13939.453125	-100.246689
13945.312500	-97.938156
13951.171875	-98.272118
13957.031250	-98.479332
13962.890625	-98.101082
13968.750000	-98.208145
13974.609375	-100.811462
13980.468750	-104.370689
13986.328125	-98.854980
13992.187500	-96.419914
13998.046875	-97.737900
14003.906250	-97.989342
14009.765625	-102.082031
14015.625000	-102.173721
14021.484375	-99.856171
14027.343750	-102.530647
14033.203125	-101.366859
14039.062500	-101.071968
14044.921875	-101.581444
14050.781250	-100.181984
14056.640625	-98.894066
14062.500000	-99.626106
14068.359375	-101.656013
14074.218750	-100.515038
14080.078125	-98.367210
14085.937500	-99.802002
14091.796875	-102.537560
14097.656250	-101.681564
14103.515625	-102.203629
14109.375000	-105.396660
14115.234375	-105.344849
14121.093750	-104.299255
14126.953125	-99.802406
14132.812500	-98.789429
14138.671875	-101.001137
14144.531250	-101.628525
14150.390625	-99.447906
14156.250000	-97.680031
14162.109375	-98.458046
14167.968750	-100.115501
14173.828125	-99.750450
14179.687500	-101.677872
14185.546875	-100.691536
14191.406250	-100.774040
14197.265625	-102.375984
14203.125000	-100.971062
14208.984375	-98.408989
14214.843750	-98.541489
14220.703125	-96.660034
14226.562500	-96.316277
14232.421875	-95.368980
14238.281250	-91.564491
14244.140625	-87.991379
14250.000000	-87.208488
14255.859375	-88.075394
14261.718750	-89.028610
14267.578125	-92.950340
14273.437500	-92.215805
14279.296875	-89.459976
14285.156250	-90.736778
14291.015625	-94.347382
14296.875000	-95.878967
14302.734375	-97.332756
14308.593750	-94.712952
14314.453125	-92.452362
14320.312500	-95.518784
14326.171875	-98.472694
14332.031250	-97.343529
14337.890625	-102.676216
14343.750000	-98.610031
14349.609375	-96.382118
14355.468750	-97.225372
14361.328125	-99.918350
14367.187500	-99.695389
14373.046875	-102.048592
14378.906250	-104.121613
14384.765625	-103.278625
14390.625000	-102.735382
14396.484375	-102.797997
14402.343750	-99.340652
14408.203125	-98.148933
14414.062500	-97.562866
14419.921875	-99.838455
14425.781250	-99.912651
14431.640625	-96.860046
14437.500000	-97.131706
14443.359375	-98.073494
14449.218750	-99.147072
14455.078125	-100.392242
14460.937500	-101.310890
14466.796875	-103.678459
14472.656250	-108.117950
14478.515625	-104.851997
14484.375000	-101.661110
14490.234375	-99.816956
14496.093750	-101.668907
14501.953125	-102.231842
14507.812500	-99.985207
14513.671875	-100.678497
14519.531250	-100.191292
14525.390625	-99.532295
14531.250000	-100.178589
14537.109375	-102.092422
14542.968750	-101.704483
14548.828125	-103.622108
14554.687500	-102.941002
14560.546875	-99.115677
14566.406250	-99.022820
14572.265625	-101.138222
14578.125000	-101.138580
14583.984375	-101.228088
14589.843750	-98.689224
14595.703125	-101.251106
14601.562500	-103.280266
14607.421875	-102.820312
14613.281250	-101.598946
14619.140625	-100.431259
14625.000000	-104.053764
14630.859375	-100.475189
14636.718750	-99.331757
14642.578125	-98.504356
14648.437500	-95.936378
14654.296875	-94.600983
14660.156250	-93.183098
14666.015625	-87.546631
14671.875000	-88.702332
14677.734375	-98.830719
14683.593750	-96.113861
14689.453125	-92.516609
14695.312500	-89.375854
14701.171875	-90.960831
14707.031250	-89.498436
14712.890625	-89.696396
14718.750000	-89.384628
14724.609375	-89.972656
14730.468750	-90.183350
14736.328125	-90.537376
14742.187500	-92.710320
14748.046875	-91.993317
14753.906250	-89.769478
14759.765625	-85.833977
14765.625000	-87.988365
14771.484375	-91.798027
14777.343750	-93.292999
14783.203125	-95.381233
14789.062500	-99.089134
14794.921875	-95.060295
14800.781250	-94.390053
14806.640625	-99.397232
14812.500000	-103.105652
14818.359375	-102.906029
14824.218750	-98.965996
14830.078125	-99.216095
14835.937500	-101.206871
14841.796875	-100.722923
14847.656250	-103.107124
14853.515625	-100.893463
14859.375000	-98.719406
14865.234375	-101.630615
14871.093750	-97.948692
14876.953125	-96.627655
14882.812500	-98.911568
14888.671875	-99.152603
14894.531250	-99.487389
14900.390625	-103.112350
14906.250000	-104.727707
14912.109375	-101.476959
14917.968750	-102.954857
14923.828125	-102.649925
14929.687500	-99.473747
14935.546875	-99.903137
14941.406250	-100.574677
14947.265625	-101.589088
14953.125000	-100.222374
14958.984375	-98.110855
14964.843750	-99.057236
14970.703125	-102.502090
14976.562500	-102.602753
14982.421875	-103.149109
14988.281250	-102.498291
14994.140625	-104.398453
15000.000000	-100.824516
15005.859375	-98.214081
15011.718750	-99.905441
15017.578125	-102.022972
15023.437500	-99.430565
15029.296875	-101.721405
15035.156250	-103.857895
15041.015625	-101.469696
15046.875000	-98.561432
15052.734375	-100.484810
15058.593750	-101.239159
15064.453125	-99.619141
15070.312500	-98.829132
15076.171875	-98.137352
15082.031250	-101.425575
15087.890625	-100.787849
15093.750000	-98.768555
15099.609375	-97.852379
15105.468750	-97.151169
15111.328125	-91.341820
15117.187500	-93.266075
15123.046875	-99.183701
15128.906250	-97.564903
15134.765625	-96.776009
15140.625000	-94.707748
15146.484375	-96.956078
15152.343750	-96.061562
15158.203125	-96.179756
15164.062500	-94.714272
15169.921875	-95.556587
15175.781250	-94.144363
15181.640625	-93.674721
15187.500000	-96.163437
15193.359375	-94.195496
15199.218750	-92.007629
15205.078125	-88.446152
15210.937500	-89.531845
15216.796875	-92.113655
15222.656250	-93.966591
15228.515625	-96.737717
15234.375000	-102.341797
15240.234375	-98.274330
15246.093750	-96.897842
15251.953125	-100.461578
15257.812500	-101.509041
15263.671875	-100.981033
15269.531250	-99.972916
15275.390625	-100.689117
15281.250000	-101.770447
15287.109375	-102.060081
15292.968750	-100.952919
15298.828125	-103.276695
15304.687500	-105.525124
15310.546875	-104.508148
15316.406250	-98.591644
15322.265625	-97.531685
15328.125000	-99.755264
15333.984375	-99.056190
15339.843750	-101.268471
15345.703125	-103.948280
15351.562500	-104.984146
15357.421875	-99.920883
15363.281250	-99.246262
15369.140625	-99.866020
15375.000000	-101.001625
15380.859375	-103.635559
15386.718750	-102.751381
15392.578125	-101.118515
15398.437500	-101.229454
15404.296875	-99.689674
15410.156250	-102.816277
15416.015625	-104.074371
15421.875000	-102.151848
15427.734375	-102.617256
15433.593750	-106.876404
15439.453125	-108.280571
15445.312500	-101.638214
15451.171875	-100.267853
15457.031250	-101.871399
15462.890625	-105.362679
15468.750000	-100.238358
15474.609375	-97.182747
15480.468750	-101.838448
15486.328125	-98.881241
15492.187500	-97.961426
15498.046875	-99.267982
15503.906250	-99.195885
15509.765625	-98.878624
15515.625000	-97.229996
15521.484375	-97.586731
15527.343750	-100.985291
15533.203125	-101.722397
15539.062500	-97.523964
15544.921875	-97.868477
15550.781250	-93.442596
15556.640625	-87.616753
15562.500000	-91.038971
15568.359375	-99.321312
15574.218750	-99.394623
15580.078125	-98.385628
15585.937500	-99.190765
15591.796875	-98.562180
15597.656250	-96.994125
15603.515625	-97.417519
15609.375000	-97.940346
15615.234375	-97.504150
15621.093750	-98.064461
15626.953125	-97.202408
15632.812500	-96.702972
15638.671875	-95.192307
15644.531250	-93.946434
15650.390625	-92.151222
15656.250000	-93.316452
15662.109375	-96.794441
15667.968750	-98.226555
15673.828125	-97.707451
15679.687500	-100.454781
15685.546875	-97.476562
15691.406250	-96.350922
15697.265625	-98.631470
15703.125000	-101.497841
15708.984375	-99.791786
15714.843750	-99.918228
15720.703125	-101.051003
15726.562500	-102.046661
15732.421875	-100.442314
15738.281250	-99.496857
15744.140625	-103.843102
15750.000000	-101.193581
15755.859375	-99.409645
15761.718750	-101.925537
15767.578125	-101.705284
15773.437500	-102.821869
15779.296875	-101.475471
15785.156250	-100.048141
15791.015625	-103.679771
15796.875000	-103.384277
15802.734375	-102.444023
15808.593750	-102.486671
15814.453125	-101.704140
15820.312500	-102.814430
15826.171875	-102.538940
15832.031250	-103.173866
15837.890625	-102.607964
15843.750000	-101.753685
15849.609375	-105.314034
15855.468750	-105.749939
15861.328125	-103.755196
15867.187500	-100.167946
15873.046875	-104.763161
15878.906250	-101.421127
15884.765625	-103.624557
15890.625000	-102.348167
15896.484375	-97.092110
15902.343750	-98.529694
15908.203125	-108.730064
15914.062500	-102.536316
15919.921875	-99.205276
15925.781250	-100.253181
15931.640625	-103.072540
15937.500000	-102.573975
15943.359375	-103.476768
15949.218750	-100.173737
15955.078125	-100.072449
15960.937500	-102.863426
15966.796875	-100.097725
15972.656250	-99.329521
15978.515625	-101.202339
15984.375000	-98.927650
15990.234375	-99.416451
15996.093750	-96.328728
16001.953125	-91.500610
16007.812500	-93.486610
16013.671875	-95.158722
16019.531250	-95.704750
16025.390625	-97.621178
16031.250000	-100.731262
16037.109375	-100.482590
16042.968750	-99.234108
16048.828125	-97.521515
16054.687500	-98.652451
16060.546875	-99.147316
16066.406250	-100.314102
16072.265625	-98.392189
16078.125000	-95.660507
16083.984375	-95.179649
16089.843750	-96.517159
16095.703125	-96.912338
16101.562500	-99.041451
16107.421875	-99.462616
16113.281250	-98.639282
16119.140625	-97.486740
16125.000000	-97.246216
16130.859375	-99.177155
16136.718750	-97.138649
16142.578125	-100.541069
16148.437500	-101.660904
16154.296875	-102.132645
16160.156250	-103.628250
16166.015625	-101.304688
16171.875000	-100.722420
16177.734375	-100.828094
16183.593750	-103.164467
16189.453125	-102.382034
16195.312500	-105.788368
16201.171875	-104.640900
16207.031250	-103.505371
16212.890625	-106.202744
16218.750000	-105.656822
16224.609375	-102.247597
16230.468750	-101.596962
16236.328125	-105.035049
16242.187500	-106.761627
16248.046875	-102.552223
16253.906250	-101.783447
16259.765625	-103.014565
16265.625000	-102.690163
16271.484375	-102.551094
16277.343750	-105.047729
16283.203125	-104.896690
16289.062500	-103.799294
16294.921875	-103.272942
16300.781250	-105.652824
16306.640625	-105.897537
16312.500000	-104.149002
16318.359375	-102.939613
16324.218750	-101.944206
16330.078125	-101.810532
16335.937500	-102.917816
16341.796875	-103.865097
16347.656250	-104.314819
16353.515625	-106.223846
16359.375000	-101.502228
16365.234375	-101.106277
16371.093750	-103.824089
16376.953125	-103.273430
16382.812500	-103.634941
16388.671875	-104.674065
16394.531250	-103.773949
16400.390625	-100.848465
16406.250000	-100.167900
16412.109375	-101.568024
16417.968750	-101.849129
16423.828125	-105.607765
16429.687500	-101.865868
16435.546875	-102.234238
16441.406250	-105.639130
16447.265625	-97.152306
16453.125000	-96.834824
16458.984375	-96.618622
16464.843750	-96.977432
16470.703125	-101.032013
16476.562500	-104.166092
16482.421875	-102.812897
16488.281250	-106.878502
16494.140625	-102.918221
16500.000000	-101.577728
16505.859375	-102.615875
16511.718750	-102.287231
16517.578125	-103.295723
16523.437500	-106.846893
16529.296875	-110.130089
16535.156250	-104.774277
16541.015625	-101.856964
16546.875000	-103.006813
16552.734375	-102.496056
16558.593750	-97.739708
16564.453125	-99.282036
16570.312500	-103.193863
16576.171875	-103.815674
16582.031250	-102.176392
16587.890625	-103.235069
16593.750000	-103.146797
16599.609375	-101.729828
16605.468750	-103.528313
16611.328125	-106.757332
16617.187500	-105.387138
16623.046875	-103.343773
16628.906250	-103.877815
16634.765625	-104.130241
16640.625000	-104.086693
16646.484375	-103.072937
16652.343750	-103.021729
16658.203125	-103.991066
16664.062500	-106.335556
16669.921875	-107.541260
16675.781250	-105.681946
16681.640625	-106.679504
16687.500000	-105.618057
16693.359375	-104.376503
16699.218750	-105.159698
16705.078125	-104.276215
16710.937500	-104.590370
16716.796875	-104.566101
16722.656250	-105.546806
16728.515625	-106.985840
16734.375000	-106.025818
16740.234375	-102.017067
16746.093750	-104.926231
16751.953125	-109.648285
16757.812500	-110.352608
16763.671875	-107.721329
16769.531250	-105.570442
16775.390625	-101.514122
16781.250000	-99.900345
16787.109375	-100.137810
16792.968750	-102.350281
16798.828125	-108.358955
16804.687500	-107.169662
16810.546875	-109.656525
16816.406250	-103.664413
16822.265625	-105.577454
16828.125000	-104.836800
16833.984375	-105.688843
16839.843750	-107.368004
16845.703125	-103.835007
16851.562500	-102.421844
16857.421875	-100.842773
16863.281250	-100.728416
16869.140625	-106.416435
16875.000000	-106.546829
16880.859375	-104.521446
16886.718750	-103.276665
16892.578125	-98.343124
16898.437500	-99.014694
16904.296875	-101.234978
16910.156250	-101.232994
16916.015625	-100.065651
16921.875000	-99.166435
16927.734375	-99.479630
16933.593750	-101.695213
16939.453125	-104.138680
16945.312500	-105.856773
16951.171875	-103.766357
16957.031250	-102.523087
16962.890625	-102.169876
16968.750000	-100.917854
16974.609375	-100.276131
16980.468750	-102.657982
16986.328125	-104.487236
16992.187500	-105.469780
16998.046875	-105.783722
17003.906250	-103.090904
17009.765625	-102.546646
17015.625000	-101.785614
17021.484375	-105.045532
17027.343750	-102.616135
17033.203125	-103.942261
17039.062500	-107.010895
17044.921875	-104.272987
17050.781250	-103.744019
17056.640625	-104.994255
17062.500000	-103.945534
17068.359375	-104.620590
17074.218750	-105.706200
17080.078125	-104.963867
17085.937500	-106.078003
17091.796875	-102.766083
17097.656250	-103.612862
17103.515625	-111.453827
17109.375000	-107.319031
17115.234375	-107.289238
17121.093750	-106.896713
17126.953125	-106.486526
17132.812500	-104.958504
17138.671875	-106.285423
17144.531250	-107.383209
17150.390625	-105.853928
17156.250000	-106.978264
17162.109375	-108.199272
17167.968750	-107.715561
17173.828125	-109.927376
17179.687500	-107.437721
17185.546875	-108.076424
17191.406250	-110.338722
17197.265625	-109.416588
17203.125000	-108.769264
17208.984375	-107.428101
17214.843750	-106.644417
17220.703125	-110.590034
17226.562500	-107.914413
17232.421875	-101.837578
17238.281250	-105.094193
17244.140625	-109.680794
17250.000000	-104.025658
17255.859375	-107.034096
17261.718750	-104.811623
17267.578125	-106.245682
17273.437500	-104.242088
17279.296875	-104.612389
17285.156250	-102.964462
17291.015625	-107.006393
17296.875000	-106.451767
17302.734375	-106.033432
17308.593750	-106.918419
17314.453125	-108.268089
17320.312500	-105.213844
17326.171875	-101.184090
17332.031250	-96.936119
17337.890625	-98.739059
17343.750000	-104.635025
17349.609375	-106.542061
17355.468750	-102.268639
17361.328125	-102.092316
17367.187500	-103.142929
17373.046875	-104.048233
17378.906250	-104.825790
17384.765625	-105.371956
17390.625000	-105.399658
17396.484375	-106.299973
17402.343750	-107.289749
17408.203125	-102.766891
17414.062500	-101.442955
17419.921875	-105.101479
17425.781250	-107.606186
17431.640625	-102.938522
17437.500000	-101.814034
17443.359375	-99.462036
17449.218750	-100.767990
17455.078125	-104.068886
17460.937500	-103.775963
17466.796875	-107.272652
17472.656250	-106.758217
17478.515625	-108.574142
17484.375000	-108.233559
17490.234375	-105.660500
17496.093750	-103.379448
17501.953125	-106.615349
17507.812500	-111.229431
17513.671875	-110.481155
17519.531250	-107.618584
17525.390625	-106.768646
17531.250000	-108.066040
17537.109375	-107.332077
17542.968750	-108.302299
17548.828125	-109.166153
17554.687500	-108.418030
17560.546875	-109.957329
17566.406250	-107.347496
17572.265625	-114.493118
17578.125000	-108.738647
17583.984375	-108.089897
17589.843750	-110.670830
17595.703125	-110.392952
17601.562500	-109.935638
17607.421875	-115.456192
17613.281250	-109.276688
17619.140625	-107.695114
17625.000000	-108.303978
17630.859375	-110.743881
17636.718750	-112.073990
17642.578125	-112.993027
17648.437500	-112.460236
17654.296875	-107.738998
17660.156250	-107.924828
17666.015625	-108.901703
17671.875000	-106.516327
17677.734375	-105.320450
17683.593750	-108.325058
17689.453125	-109.711258
17695.312500	-107.488197
17701.171875	-108.931313
17707.031250	-105.119774
17712.890625	-107.157631
17718.750000	-107.867287
17724.609375	-105.815681
17730.468750	-106.484673
17736.328125	-110.264122
17742.187500	-110.407417
17748.046875	-110.414490
17753.906250	-110.390747
17759.765625	-110.595306
17765.625000	-109.212318
17771.484375	-106.623482
17777.343750	-100.739113
17783.203125	-101.375877
17789.062500	-107.243973
17794.921875	-109.724205
17800.781250	-107.614151
17806.640625	-106.086159
17812.500000	-107.384193
17818.359375	-111.756966
17824.218750	-111.348869
17830.078125	-110.934074
17835.937500	-110.549942
17841.796875	-108.858162
17847.656250	-112.084816
17853.515625	-109.270470
17859.375000	-105.968246
17865.234375	-107.879143
17871.093750	-108.721954
17876.953125	-107.405670
17882.812500	-105.339699
17888.671875	-105.148041
17894.531250	-104.921280
17900.390625	-104.872307
17906.250000	-107.271248
17912.109375	-108.697006
17917.968750	-111.548607
17923.828125	-111.976799
17929.687500	-111.401367
17935.546875	-110.039978
17941.406250	-112.672997
17947.265625	-113.220215
17953.125000	-111.206543
17958.984375	-109.974892
17964.843750	-109.439941
17970.703125	-108.228783
17976.562500	-112.076393
17982.421875	-117.063393
17988.281250	-112.103516
17994.140625	-109.887276
18000.000000	-112.349785
18005.859375	-112.559708
18011.718750	-113.605988
18017.578125	-112.167824
18023.437500	-114.297958
18029.296875	-114.092049
18035.156250	-114.291527
18041.015625	-113.223427
18046.875000	-111.883865
18052.734375	-111.372139
18058.593750	-113.609795
18064.453125	-111.708763
18070.312500	-113.779114
18076.171875	-114.761139
18082.031250	-112.445107
18087.890625	-112.746902
18093.750000	-114.666641
18099.609375	-114.170937
18105.468750	-111.680977
18111.328125	-113.186951
18117.187500	-111.356033
18123.046875	-108.952171
18128.906250	-109.432045
18134.765625	-108.778786
18140.625000	-111.629570
18146.484375	-115.539040
18152.343750	-115.595070
18158.203125	-110.255768
18164.062500	-109.316322
18169.921875	-110.752068
18175.781250	-111.587318
18181.640625	-114.249817
18187.500000	-115.351257
18193.359375	-113.893478
18199.218750	-114.610466
18205.078125	-111.275879
18210.937500	-109.475952
18216.796875	-109.111282
18222.656250	-107.828514
18228.515625	-106.133362
18234.375000	-108.850677
18240.234375	-108.291916
18246.093750	-108.812180
18251.953125	-111.235184
18257.812500	-115.587563
18263.671875	-111.241997
18269.531250	-112.824577
18275.390625	-116.012238
18281.250000	-116.453415
18287.109375	-114.872467
18292.968750	-110.726990
18298.828125	-110.421867
18304.687500	-114.471825
18310.546875	-111.703133
18316.406250	-115.286827
18322.265625	-112.250488
18328.125000	-108.262650
18333.984375	-108.491821
18339.843750	-112.992546
18345.703125	-107.395294
18351.562500	-103.964127
18357.421875	-104.610817
18363.281250	-109.741386
18369.140625	-112.228920
18375.000000	-111.485657
18380.859375	-110.605125
18386.718750	-113.004585
18392.578125	-112.410210
18398.437500	-110.623009
18404.296875	-111.763603
18410.156250	-109.843880
18416.015625	-108.058548
18421.875000	-108.464897
18427.734375	-111.163239
18433.593750	-113.474091
18439.453125	-113.953316
18445.312500	-110.544746
18451.171875	-113.100288
18457.031250	-113.649521
18462.890625	-110.757736
18468.750000	-112.142845
18474.609375	-110.901321
18480.468750	-110.840759
18486.328125	-113.088089
18492.187500	-114.606247
18498.046875	-111.827019
18503.906250	-111.385506
18509.765625	-112.373543
18515.625000	-111.731087
18521.484375	-113.356003
18527.343750	-109.015488
18533.203125	-108.724670
18539.062500	-109.092682
18544.921875	-112.255280
18550.781250	-113.202156
18556.640625	-111.505463
18562.500000	-111.196709
18568.359375	-111.028648
18574.218750	-115.386070
18580.078125	-117.538383
18585.937500	-111.192375
18591.796875	-109.341171
18597.656250	-111.683922
18603.515625	-113.019783
18609.375000	-113.370872
18615.234375	-107.975220
18621.093750	-109.433525
18626.953125	-111.994598
18632.812500	-111.030357
18638.671875	-110.273453
18644.531250	-111.608658
18650.390625	-110.131447
18656.250000	-109.022820
18662.109375	-108.363083
18667.968750	-106.945808
18673.828125	-106.360374
18679.687500	-106.798843
18685.546875	-106.107407
18691.406250	-104.980904
18697.265625	-106.263420
18703.125000	-109.102219
18708.984375	-109.365997
18714.843750	-111.373672
18720.703125	-111.424507
18726.562500	-109.449654
18732.421875	-107.770264
18738.281250	-108.460098
18744.140625	-112.601166
18750.000000	-111.558762
18755.859375	-109.490967
18761.718750	-107.290802
18767.578125	-106.451378
18773.437500	-107.534554
18779.296875	-106.636520
18785.156250	-105.894554
18791.015625	-105.450775
18796.875000	-108.219048
18802.734375	-110.860931
18808.593750	-108.730186
18814.453125	-108.107780
18820.312500	-109.079086
18826.171875	-109.420288
18832.031250	-108.782204
18837.890625	-109.204079
18843.750000	-110.485207
18849.609375	-108.652580
18855.468750	-108.382370
18861.328125	-112.180603
18867.187500	-112.753944
18873.046875	-113.886330
18878.906250	-115.063568
18884.765625	-111.174324
18890.625000	-110.297997
18896.484375	-110.898148
18902.343750	-111.642250
18908.203125	-110.921959
18914.062500	-110.979805
18919.921875	-113.302200
18925.781250	-112.500809
18931.640625	-113.080467
18937.500000	-116.575569
18943.359375	-115.325348
18949.218750	-114.286606
18955.078125	-109.903320
18960.937500	-109.768761
18966.796875	-110.113007
18972.656250	-109.572060
18978.515625	-108.667419
18984.375000	-109.268463
18990.234375	-110.897865
18996.093750	-111.650124
19001.953125	-112.920029
19007.812500	-110.134315
19013.671875	-109.993446
19019.531250	-111.330551
19025.390625	-112.442146
19031.250000	-111.062332
19037.109375	-109.388351
19042.968750	-108.707909
19048.828125	-109.085953
19054.687500	-113.226128
19060.546875	-107.505920
19066.406250	-108.819511
19072.265625	-111.009972
19078.125000	-111.113182
19083.984375	-110.897049
19089.843750	-109.233490
19095.703125	-107.363518
19101.562500	-106.646873
19107.421875	-108.136703
19113.281250	-110.019402
19119.140625	-111.210419
19125.000000	-110.777458
19130.859375	-109.189072
19136.718750	-109.036804
19142.578125	-108.547142
19148.437500	-107.422226
19154.296875	-108.381668
19160.156250	-110.489624
19166.015625	-112.352432
19171.875000	-111.529274
19177.734375	-109.360565
19183.593750	-108.104118
19189.453125	-110.490768
19195.312500	-110.280029
19201.171875	-109.588478
19207.031250	-111.243935
19212.890625	-109.048920
19218.750000	-109.277046
19224.609375	-112.150101
19230.468750	-111.798676
19236.328125	-109.959145
19242.187500	-109.883965
19248.046875	-110.308334
19253.906250	-109.304573
19259.765625	-109.923653
19265.625000	-110.516769
19271.484375	-110.974266
19277.343750	-111.609123
19283.203125	-111.236084
19289.062500	-110.234993
19294.921875	-111.427216
19300.781250	-114.509506
19306.640625	-113.532104
19312.500000	-112.476433
19318.359375	-113.276596
19324.218750	-113.729996
19330.078125	-112.618874
19335.937500	-109.043030
19341.796875	-109.760094
19347.656250	-116.081627
19353.515625	-117.169670
19359.375000	-114.660309
19365.234375	-113.804024
19371.093750	-111.723854
19376.953125	-111.128853
19382.812500	-112.746513
19388.671875	-113.671997
19394.531250	-112.084961
19400.390625	-110.516640
19406.250000	-109.699623
19412.109375	-111.292725
19417.968750	-112.029991
19423.828125	-110.324196
19429.687500	-112.472794
19435.546875	-112.684929
19441.406250	-110.721039
19447.265625	-112.168068
19453.125000	-115.483910
19458.984375	-117.732338
19464.843750	-115.801918
19470.703125	-113.123634
19476.562500	-110.309654
19482.421875	-109.495697
19488.281250	-112.834938
19494.140625	-111.864479
19500.000000	-117.767670
19505.859375	-113.397133
19511.718750	-114.891754
19517.578125	-112.793068
19523.437500	-112.788773
19529.296875	-115.147034
19535.156250	-114.776909
19541.015625	-113.841736
19546.875000	-109.504143
19552.734375	-108.821602
19558.593750	-109.948280
19564.453125	-109.284737
19570.312500	-111.225342
19576.171875	-115.424934
19582.031250	-113.057556
19587.890625	-112.419235
19593.750000	-109.836021
19599.609375	-109.745079
19605.468750	-111.973282
19611.328125	-112.351280
19617.187500	-111.789177
19623.046875	-112.304382
19628.906250	-111.326065
19634.765625	-114.164787
19640.625000	-113.184113
19646.484375	-114.064835
19652.343750	-115.713959
19658.203125	-112.286903
19664.062500	-109.482239
19669.921875	-110.587013
19675.781250	-114.390823
19681.640625	-116.277023
19687.500000	-112.642990
19693.359375	-111.196548
19699.218750	-111.807793
19705.078125	-114.923843
19710.937500	-115.658882
19716.796875	-112.024002
19722.656250	-114.057747
19728.515625	-114.638535
19734.375000	-113.721008
19740.234375	-115.100258
19746.093750	-112.645302
19751.953125	-116.335556
19757.812500	-117.229691
19763.671875	-113.553001
19769.531250	-113.947937
19775.390625	-111.050087
19781.250000	-110.200600
19787.109375	-112.332924
19792.968750	-113.522232
19798.828125	-114.930367
19804.687500	-113.757805
19810.546875	-114.158440
19816.406250	-114.487823
19822.265625	-114.531387
19828.125000	-115.463562
19833.984375	-115.341736
19839.843750	-116.704796
19845.703125	-116.909241
19851.562500	-114.618080
19857.421875	-114.400604
19863.281250	-115.638786
19869.140625	-113.642067
19875.000000	-112.497536
19880.859375	-112.740372
19886.718750	-109.851479
19892.578125	-110.153076
19898.437500	-111.595650
19904.296875	-113.380249
19910.156250	-112.223557
19916.015625	-110.665291
19921.875000	-110.720230
19927.734375	-113.330399
19933.593750	-113.567970
19939.453125	-111.815140
19945.312500	-115.256699
19951.171875	-112.041779
19957.031250	-112.646217
19962.890625	-114.002441
19968.750000	-112.274567
19974.609375	-115.342003
19980.468750	-113.119873
19986.328125	-108.447998
19992.187500	-108.436752
19998.046875	-108.886650
20003.906250	-115.066490
20009.765625	-115.891319
20015.625000	-113.339134
20021.484375	-112.572723
20027.343750	-110.518112
20033.203125	-108.994720
20039.062500	-108.013435
20044.921875	-110.694313
20050.781250	-112.719543
20056.640625	-109.214470
20062.500000	-108.535957
20068.359375	-110.545609
20074.218750	-111.056892
20080.078125	-113.106232
20085.937500	-114.538429
20091.796875	-114.051308
20097.656250	-115.631493
20103.515625	-113.057709
20109.375000	-112.897827
20115.234375	-114.275139
20121.093750	-111.614433
20126.953125	-110.214745
20132.812500	-107.322342
20138.671875	-108.245743
20144.531250	-109.549141
20150.390625	-111.796410
20156.250000	-110.913147
20162.109375	-110.269554
20167.968750	-111.704460
20173.828125	-114.005821
20179.687500	-113.397690
20185.546875	-113.044479
20191.406250	-112.626678
20197.265625	-116.580902
20203.125000	-115.222015
20208.984375	-112.710640
20214.843750	-110.874702
20220.703125	-109.264725
20226.562500	-109.440910
20232.421875	-110.443275
20238.281250	-112.713654
20244.140625	-111.601303
20250.000000	-112.919716
20255.859375	-113.565002
20261.718750	-113.264214
20267.578125	-113.415245
20273.437500	-115.224838
20279.296875	-115.426491
20285.156250	-113.784966
20291.015625	-113.105530
20296.875000	-114.950638
20302.734375	-116.848869
20308.593750	-114.131966
20314.453125	-112.041962
20320.312500	-111.596306
20326.171875	-113.298721
20332.031250	-110.954720
20337.890625	-110.544937
20343.750000	-111.833809
20349.609375	-114.112808
20355.468750	-111.752129
20361.328125	-110.321846
20367.187500	-111.557899
20373.046875	-111.599831
20378.906250	-110.015038
20384.765625	-110.626221
20390.625000	-113.683998
20396.484375	-114.805450
20402.343750	-112.745468
20408.203125	-111.290947
20414.062500	-112.137962
20419.921875	-113.683678
20425.781250	-112.296944
20431.640625	-112.501686
20437.500000	-113.656647
20443.359375	-108.488968
20449.218750	-107.530602
20455.078125	-110.349991
20460.937500	-111.554756
20466.796875	-109.252960
20472.656250	-107.647224
20478.515625	-112.353813
20484.375000	-107.392799
20490.234375	-109.026917
20496.093750	-111.490883
20501.953125	-110.231934
20507.812500	-110.643593
20513.671875	-110.808350
20519.531250	-107.786049
20525.390625	-109.870903
20531.250000	-111.667015
20537.109375	-111.897385
20542.968750	-114.489761
20548.828125	-111.296806
20554.687500	-107.880463
20560.546875	-106.249222
20566.406250	-106.241051
20572.265625	-107.181236
20578.125000	-106.067650
20583.984375	-110.319305
20589.843750	-107.639771
20595.703125	-108.786858
20601.562500	-111.533424
20607.421875	-109.994385
20613.281250	-107.539764
20619.140625	-109.042534
20625.000000	-110.503098
20630.859375	-108.295868
20636.718750	-107.741577
20642.578125	-111.463402
20648.437500	-110.367462
20654.296875	-109.013382
20660.156250	-109.305267
20666.015625	-110.522713
20671.875000	-109.291428
20677.734375	-110.785789
20683.593750	-110.402290
20689.453125	-108.410210
20695.312500	-109.913506
20701.171875	-113.829910
20707.031250	-113.928360
20712.890625	-112.971214
20718.750000	-113.075630
20724.609375	-112.176659
20730.468750	-111.966026
20736.328125	-109.345947
20742.187500	-108.521347
20748.046875	-114.323669
20753.906250	-108.769753
20759.765625	-107.148605
20765.625000	-109.427933
20771.484375	-110.290283
20777.343750	-106.620712
20783.203125	-106.121696
20789.062500	-110.454773
20794.921875	-110.526299
20800.781250	-109.557434
20806.640625	-109.870720
20812.500000	-110.105057
20818.359375	-110.957123
20824.218750	-108.847183
20830.078125	-109.738037
20835.937500	-110.244316
20841.796875	-111.060394
20847.656250	-111.914749
20853.515625	-111.518837
20859.375000	-115.022820
20865.234375	-112.594650
20871.093750	-110.822548
20876.953125	-107.726654
20882.812500	-108.915199
20888.671875	-109.649246
20894.531250	-109.785233
20900.390625	-110.584793
20906.250000	-111.885818
20912.109375	-112.967827
20917.968750	-107.213936
20923.828125	-105.413788
20929.687500	-105.686523
20935.546875	-106.471519
20941.406250	-106.232407
20947.265625	-107.322304
20953.125000	-108.598831
20958.984375	-105.851494
20964.843750	-105.897964
20970.703125	-107.365082
20976.562500	-110.162575
20982.421875	-109.245300
20988.281250	-108.336510
20994.140625	-106.923782
21000.000000	-106.134933
21005.859375	-107.267433
21011.718750	-107.385887
21017.578125	-108.988029
21023.437500	-110.063377
21029.296875	-110.160660
21035.156250	-106.367035
21041.015625	-106.915497
21046.875000	-112.846062
21052.734375	-108.606804
21058.593750	-105.563820
21064.453125	-108.207748
21070.312500	-108.590973
21076.171875	-109.232864
21082.031250	-109.635002
21087.890625	-110.583290
21093.750000	-107.837837
21099.609375	-107.635231
21105.468750	-107.020676
21111.328125	-108.271835
21117.187500	-106.867363
21123.046875	-107.470306
21128.906250	-107.481995
21134.765625	-105.927071
21140.625000	-106.378258
21146.484375	-108.954239
21152.343750	-105.602150
21158.203125	-105.213715
21164.062500	-106.069069
21169.921875	-105.236923
21175.781250	-109.318840
21181.640625	-108.131042
21187.500000	-104.606766
21193.359375	-109.379074
21199.218750	-105.553177
21205.078125	-105.267372
21210.937500	-109.911415
21216.796875	-111.943039
21222.656250	-108.981010
21228.515625	-107.906357
21234.375000	-112.105110
21240.234375	-111.812019
21246.093750	-109.955017
21251.953125	-108.550987
21257.812500	-107.189735
21263.671875	-106.845772
21269.531250	-107.677116
21275.390625	-111.592712
21281.250000	-109.464104
21287.109375	-109.598312
21292.968750	-112.968071
21298.828125	-109.064941
21304.687500	-112.353279
21310.546875	-114.431686
21316.406250	-109.164429
21322.265625	-105.611275
21328.125000	-111.236191
21333.984375	-105.452980
21339.843750	-107.741898
21345.703125	-111.593246
21351.562500	-106.874779
21357.421875	-111.541405
21363.281250	-108.579376
21369.140625	-103.033768
21375.000000	-105.969727
21380.859375	-103.105095
21386.718750	-103.858505
21392.578125	-108.560928
21398.437500	-109.407776
21404.296875	-106.587585
21410.156250	-109.120255
21416.015625	-107.556488
21421.875000	-108.843666
21427.734375	-112.012093
21433.593750	-107.633736
21439.453125	-105.886032
21445.312500	-106.794281
21451.171875	-108.533211
21457.031250	-108.244865
21462.890625	-109.979172
21468.750000	-112.311272
21474.609375	-114.357254
21480.468750	-112.694481
21486.328125	-112.450195
21492.187500	-115.888985
21498.046875	-117.833000
21503.906250	-117.249886
21509.765625	-117.580338
21515.625000	-117.601059
21521.484375	-120.121719
21527.343750	-118.536179
21533.203125	-119.256950
21539.062500	-115.914978
21544.921875	-119.369705
21550.781250	-120.230225
21556.640625	-115.143700
21562.500000	-115.293015
21568.359375	-116.371323
21574.218750	-117.607513
21580.078125	-119.723640
21585.937500	-120.611404
21591.796875	-119.965790
21597.656250	-115.956833
21603.515625	-113.353447
21609.375000	-111.665215
21615.234375	-111.450668
21621.093750	-114.289772
21626.953125	-118.197159
21632.812500	-116.647873
21638.671875	-114.402023
21644.531250	-114.470207
21650.390625	-115.429359
21656.250000	-118.157524
21662.109375	-119.169365
21667.968750	-115.854584
21673.828125	-115.667305
21679.687500	-117.998367
21685.546875	-115.375305
21691.406250	-114.220688
21697.265625	-113.642708
21703.125000	-113.718933
21708.984375	-112.918808
21714.843750	-116.600792
21720.703125	-120.032944
21726.562500	-115.724007
21732.421875	-116.392395
21738.281250	-116.037842
21744.140625	-115.728188
21750.000000	-116.903557
21755.859375	-116.426453
21761.718750	-122.271896
21767.578125	-117.685669
21773.437500	-115.037369
21779.296875	-114.667152
21785.156250	-114.914207
21791.015625	-115.212982
21796.875000	-112.585571
21802.734375	-116.798355
21808.593750	-119.464867
21814.453125	-116.036934
21820.312500	-116.073456
21826.171875	-113.107460
21832.031250	-115.975113
21837.890625	-124.867081
21843.750000	-118.126282
21849.609375	-115.797508
21855.468750	-116.188461
21861.328125	-115.255066
21867.187500	-113.883011
21873.046875	-116.791023
21878.906250	-115.589752
21884.765625	-115.119827
21890.625000	-115.022842
21896.484375	-114.181648
21902.343750	-112.237633
21908.203125	-114.111443
21914.062500	-117.145988
21919.921875	-115.116341
21925.781250	-114.281174
21931.640625	-114.749840
21937.500000	-114.838463
21943.359375	-117.661072
21949.218750	-117.440849
21955.078125	-118.746445
21960.937500	-117.432701
21966.796875	-118.696869
21972.656250	-118.327667
21978.515625	-116.435738
21984.375000	-115.231262
21990.234375	-114.347641
21996.093750	-118.132599
22001.953125	-120.007393
22007.812500	-120.170410
22013.671875	-118.858139
22019.531250	-117.953896
22025.390625	-121.604698
22031.250000	-119.823875
22037.109375	-118.672935
22042.968750	-116.945961
22048.828125	-115.838486
22054.687500	-115.821671
22060.546875	-119.991638
22066.406250	-117.490189
22072.265625	-117.676422
22078.125000	-117.917870
22083.984375	-113.834572
22089.843750	-115.667198
22095.703125	-115.747185
22101.562500	-121.063629
22107.421875	-122.923523
22113.281250	-118.880280
22119.140625	-119.691399
22125.000000	-122.690666
22130.859375	-120.366447
22136.718750	-119.293060
22142.578125	-116.793709
22148.437500	-116.860001
22154.296875	-117.315002
22160.156250	-122.794426
22166.015625	-117.507637
22171.875000	-115.796265
22177.734375	-116.018219
22183.593750	-119.473679
22189.453125	-118.391449
22195.312500	-117.518364
22201.171875	-117.237190
22207.031250	-119.887604
22212.890625	-123.354370
22218.750000	-117.594643
22224.609375	-118.174637
22230.468750	-117.379402
22236.328125	-115.879562
22242.187500	-115.383316
22248.046875	-119.169350
22253.906250	-122.466934
22259.765625	-119.844986
22265.625000	-119.013954
22271.484375	-115.021858
22277.343750	-114.213036
22283.203125	-114.136429
22289.062500	-114.269775
22294.921875	-114.967003
22300.781250	-115.108604
22306.640625	-116.752930
22312.500000	-114.694893
22318.359375	-115.515205
22324.218750	-116.063591
22330.078125	-117.062889
22335.937500	-117.614632
22341.796875	-117.395729
22347.656250	-111.843124
22353.515625	-110.870705
22359.375000	-112.890465
22365.234375	-110.607216
22371.093750	-110.205879
22376.953125	-112.515266
22382.812500	-111.170113
22388.671875	-114.397461
22394.531250	-112.920525
22400.390625	-110.728508
22406.250000	-113.560852
22412.109375	-118.591492
22417.968750	-111.390015
22423.828125	-111.185776
22429.687500	-111.385284
22435.546875	-110.283798
22441.406250	-111.188225
22447.265625	-111.008873
22453.125000	-112.378723
22458.984375	-115.241867
22464.843750	-118.761429
22470.703125	-113.113762
22476.562500	-112.998138
22482.421875	-113.270653
22488.281250	-113.552589
22494.140625	-114.100388
22500.000000	-114.809334
22505.859375	-115.354500
22511.718750	-113.058388
22517.578125	-110.984604
22523.437500	-114.448418
22529.296875	-113.186508
22535.156250	-109.378204
22541.015625	-112.234589
22546.875000	-114.209846
22552.734375	-113.208626
22558.593750	-114.893188
22564.453125	-114.810173
22570.312500	-113.419930
22576.171875	-114.522499
22582.031250	-113.397659
22587.890625	-111.305565
22593.750000	-112.633354
22599.609375	-114.296593
22605.468750	-115.497116
22611.328125	-115.832108
22617.187500	-114.806854
22623.046875	-117.263725
22628.906250	-117.150726
22634.765625	-115.524780
22640.625000	-117.374298
22646.484375	-116.727821
22652.343750	-114.639839
22658.203125	-113.925621
22664.062500	-117.074905
22669.921875	-117.627350
22675.781250	-115.697670
22681.640625	-113.701141
22687.500000	-113.510742
22693.359375	-115.789925
22699.218750	-118.836266
22705.078125	-113.234329
22710.937500	-110.684601
22716.796875	-113.222328
22722.656250	-113.872734
22728.515625	-116.076256
22734.375000	-115.496910
22740.234375	-111.532997
22746.093750	-112.242371
22751.953125	-115.413422
22757.812500	-118.198860
22763.671875	-115.249603
22769.531250	-116.087357
22775.390625	-118.484558
22781.250000	-118.200470
22787.109375	-112.907104
22792.968750	-113.030914
22798.828125	-111.866608
22804.687500	-114.413765
22810.546875	-114.066612
22816.406250	-113.901634
22822.265625	-114.469032
22828.125000	-114.742622
22833.984375	-117.469719
22839.843750	-117.302757
22845.703125	-115.817818
22851.562500	-116.606247
22857.421875	-119.169662
22863.281250	-116.166145
22869.140625	-117.375153
22875.000000	-118.142868
22880.859375	-115.595917
22886.718750	-115.556725
22892.578125	-113.575989
22898.437500	-116.542305
22904.296875	-117.453545
22910.156250	-118.114822
22916.015625	-115.881889
22921.875000	-113.656693
22927.734375	-114.870522
22933.593750	-116.549339
22939.453125	-117.754776
22945.312500	-117.975029
22951.171875	-119.357262
22957.031250	-118.434708
22962.890625	-117.913757
22968.750000	-117.786621
22974.609375	-114.493088
22980.468750	-112.769135
22986.328125	-116.783470
22992.187500	-121.851685
22998.046875	-118.818008
23003.906250	-119.102386
23009.765625	-118.421440
23015.625000	-118.764435
23021.484375	-121.156754
23027.343750	-116.160133
23033.203125	-116.336723
23039.062500	-117.475533
23044.921875	-116.773392
23050.781250	-119.028198
23056.640625	-118.239166
23062.500000	-119.439468
23068.359375	-123.609634
23074.218750	-119.313423
23080.078125	-118.343788
23085.937500	-122.939690
23091.796875	-123.908272
23097.656250	-119.954369
23103.515625	-121.674927
23109.375000	-124.501198
23115.234375	-122.665665
23121.093750	-118.988159
23126.953125	-117.512001
23132.812500	-119.850502
23138.671875	-124.114120
23144.531250	-122.237724
23150.390625	-119.138596
23156.250000	-119.088860
23162.109375	-123.017433
23167.968750	-118.824364
23173.828125	-119.481743
23179.687500	-121.024681
23185.546875	-117.869164
23191.406250	-118.721535
23197.265625	-121.327217
23203.125000	-123.268768
23208.984375	-121.338722
23214.843750	-121.083939
23220.703125	-119.535034
23226.562500	-119.658302
23232.421875	-118.649536
23238.281250	-117.831718
23244.140625	-118.247078
23250.000000	-120.014107
23255.859375	-118.741531
23261.718750	-118.574127
23267.578125	-116.630531
23273.437500	-118.547943
23279.296875	-121.958260
23285.156250	-124.109566
23291.015625	-121.842827
23296.875000	-122.317436
23302.734375	-121.835678
23308.593750	-123.203712
23314.453125	-122.512161
23320.312500	-119.502831
23326.171875	-118.357819
23332.031250	-120.830269
23337.890625	-119.496521
23343.750000	-122.008125
23349.609375	-122.599075
23355.468750	-121.872299
23361.328125	-117.793655
23367.187500	-117.847664
23373.046875	-121.362495
23378.906250	-120.933792
23384.765625	-119.832764
23390.625000	-120.742088
23396.484375	-122.268242
23402.343750	-122.473503
23408.203125	-121.567108
23414.062500	-121.212776
23419.921875	-119.734924
23425.781250	-120.692680
23431.640625	-124.512329
23437.500000	-125.709663
23443.359375	-123.377304
23449.218750	-125.230408
23455.078125	-125.924446
23460.937500	-124.504410
23466.796875	-121.909126
23472.656250	-119.887886
23478.515625	-121.254417
23484.375000	-123.636940
23490.234375	-122.336227
23496.093750	-126.453003
23501.953125	-125.121956
23507.812500	-124.280724
23513.671875	-125.280502
23519.531250	-121.438499
23525.390625	-121.768608
23531.250000	-122.934418
23537.109375	-125.276154
23542.968750	-124.299484
23548.828125	-124.596001
23554.687500	-124.248634
23560.546875	-125.252075
23566.406250	-122.938934
23572.265625	-121.969810
23578.125000	-123.629524
23583.984375	-124.598572
23589.843750	-124.943680
23595.703125	-120.281342
23601.562500	-120.707542
23607.421875	-125.022873
23613.281250	-121.417786
23619.140625	-122.093323
23625.000000	-123.543991
23630.859375	-120.794357
23636.718750	-121.373108
23642.578125	-122.246223
23648.437500	-126.750450
23654.296875	-126.506027
23660.156250	-124.244118
23666.015625	-124.250137
23671.875000	-122.957436
23677.734375	-121.592606
23683.593750	-123.884377
23689.453125	-128.194458
23695.312500	-125.037033
23701.171875	-122.629501
23707.031250	-122.826897
23712.890625	-123.016090
23718.750000	-122.979393
23724.609375	-125.984222
23730.468750	-127.676926
23736.328125	-124.061111
23742.187500	-123.054504
23748.046875	-126.961960
23753.906250	-125.187080
23759.765625	-121.526932
23765.625000	-121.488846
23771.484375	-123.617744
23777.343750	-123.668228
23783.203125	-124.137383
23789.062500	-123.543167
23794.921875	-123.271965
23800.781250	-124.750183
23806.640625	-126.783607
23812.500000	-126.539040
23818.359375	-125.341591
23824.218750	-124.740555
23830.078125	-123.831802
23835.937500	-122.658966
23841.796875	-125.344490
23847.656250	-122.871994
23853.515625	-123.383095
23859.375000	-124.158104
23865.234375	-124.710075
23871.093750	-125.216698
23876.953125	-126.699089
23882.812500	-123.895699
23888.671875	-123.880180
23894.531250	-124.627663
23900.390625	-126.765717
23906.250000	-124.580070
23912.109375	-126.028046
23917.968750	-126.289597
23923.828125	-127.811859
23929.687500	-126.569481
23935.546875	-125.149895
23941.406250	-129.352554
23947.265625	-129.169189
23953.125000	-126.851685
23958.984375	-128.011642
23964.843750	-126.014847
23970.703125	-126.349342
23976.562500	-126.239426
23982.421875	-124.217476
23988.281250	-124.734840
23994.140625	-125.105484
