Frequency (Hz)	Level (dB)
5.859375	-61.665230
11.718750	-56.492752
17.578125	-50.059135
23.437500	-47.538528
29.296875	-55.942528
35.156250	-62.976082
41.015625	-57.502701
46.875000	-56.417336
52.734375	-58.033180
58.593750	-64.592697
64.453125	-69.582031
70.312500	-69.605934
76.171875	-67.796089
82.031250	-71.473709
87.890625	-75.254814
93.750000	-73.819740
99.609375	-69.758118
105.468750	-73.764359
111.328125	-77.948639
117.187500	-78.404961
123.046875	-79.700073
128.906250	-79.652672
134.765625	-82.814377
140.625000	-86.855782
146.484375	-89.721298
152.343750	-91.527115
158.203125	-91.791023
164.062500	-91.348618
169.921875	-92.175926
175.781250	-92.550186
181.640625	-92.403191
187.500000	-89.185562
193.359375	-87.553947
199.218750	-84.438942
205.078125	-86.137741
210.937500	-88.772148
216.796875	-90.366096
222.656250	-88.945457
228.515625	-86.645370
234.375000	-83.267448
240.234375	-78.501648
246.093750	-74.721466
251.953125	-72.041672
257.812500	-67.097275
263.671875	-64.559349
269.531250	-65.675972
275.390625	-63.765560
281.250000	-65.043228
287.109375	-68.875465
292.968750	-71.538910
298.828125	-72.588882
304.687500	-75.165985
310.546875	-74.667389
316.406250	-74.186546
322.265625	-75.235573
328.125000	-72.969032
333.984375	-74.543541
339.843750	-73.856422
345.703125	-72.402611
351.562500	-72.832047
357.421875	-73.993416
363.281250	-72.114952
369.140625	-71.667381
375.000000	-72.039871
380.859375	-69.632820
386.718750	-65.702019
392.578125	-67.076508
398.437500	-73.316658
404.296875	-72.387619
410.156250	-68.086914
416.015625	-64.793793
421.875000	-59.106781
427.734375	-51.771618
433.593750	-43.067719
439.453125	-31.336586
445.312500	-28.017963
451.171875	-33.162323
457.031250	-48.359207
462.890625	-60.176376
468.750000	-64.571114
474.609375	-69.218224
480.468750	-72.423309
486.328125	-73.393150
492.187500	-73.784897
498.046875	-72.477295
503.906250	-74.123726
509.765625	-77.045746
515.625000	-74.688568
521.484375	-73.264061
527.343750	-72.755043
533.203125	-72.536766
539.062500	-73.726479
544.921875	-73.549423
550.781250	-74.192093
556.640625	-73.721420
562.500000	-76.449554
568.359375	-80.126556
574.218750	-81.288933
580.078125	-82.740311
585.937500	-84.327477
591.796875	-78.394951
597.656250	-77.560890
603.515625	-78.611244
609.375000	-77.754196
615.234375	-79.734276
621.093750	-81.484123
626.953125	-80.506401
632.812500	-80.795341
638.671875	-81.457817
644.531250	-78.113533
650.390625	-76.158867
656.250000	-78.088264
662.109375	-81.697815
667.968750	-81.343513
673.828125	-80.518166
679.687500	-81.966812
685.546875	-82.596916
691.406250	-83.663651
697.265625	-82.620689
703.125000	-79.694588
708.984375	-80.086159
714.843750	-83.318184
720.703125	-82.255478
726.562500	-80.535332
732.421875	-80.116020
738.281250	-79.099960
744.140625	-78.299416
750.000000	-79.478920
755.859375	-83.366089
761.718750	-86.148018
767.578125	-81.949409
773.437500	-80.857018
779.296875	-81.448387
785.156250	-81.472031
791.015625	-78.631287
796.875000	-77.562851
802.734375	-76.499184
808.593750	-74.128120
814.453125	-71.780159
820.312500	-71.312683
826.171875	-71.837646
832.031250	-74.285446
837.890625	-76.499962
843.750000	-76.930313
849.609375	-75.688416
855.468750	-73.561478
861.328125	-74.213074
867.187500	-66.736298
873.046875	-58.182636
878.906250	-36.053535
884.765625	-28.349117
890.625000	-31.104752
896.484375	-38.875412
902.343750	-49.923550
908.203125	-65.990562
914.062500	-66.639236
919.921875	-68.331436
925.781250	-68.849571
931.640625	-70.491699
937.500000	-71.608009
943.359375	-69.590622
949.218750	-69.404251
955.078125	-69.343719
960.937500	-70.916405
966.796875	-74.879616
972.656250	-79.096458
978.515625	-85.318855
984.375000	-86.501129
990.234375	-81.757446
996.093750	-80.413918
1001.953125	-83.254646
1007.812500	-82.025574
1013.671875	-78.753014
1019.531250	-80.200424
1025.390625	-82.620842
1031.250000	-81.337616
1037.109375	-79.572601
1042.968750	-79.709618
1048.828125	-78.674507
1054.687500	-78.789993
1060.546875	-79.322174
1066.406250	-81.701889
1072.265625	-84.238197
1078.125000	-83.118996
1083.984375	-81.861023
1089.843750	-83.613586
1095.703125	-83.614281
1101.562500	-83.078781
1107.421875	-84.680939
1113.281250	-84.127174
1119.140625	-81.624077
1125.000000	-78.440140
1130.859375	-77.341934
1136.718750	-77.250908
1142.578125	-76.957207
1148.437500	-78.136192
1154.296875	-78.321190
1160.156250	-78.179764
1166.015625	-77.710052
1171.875000	-76.358780
1177.734375	-75.132858
1183.593750	-75.410919
1189.453125	-76.075615
1195.312500	-78.173470
1201.171875	-79.411926
1207.031250	-78.902222
1212.890625	-78.101501
1218.750000	-80.877235
1224.609375	-84.145676
1230.468750	-84.410965
1236.328125	-82.417824
1242.187500	-81.770828
1248.046875	-81.031815
1253.906250	-80.992279
1259.765625	-80.697914
1265.625000	-82.011299
1271.484375	-78.650978
1277.343750	-78.528870
1283.203125	-77.599159
1289.062500	-74.878235
1294.921875	-68.725266
1300.781250	-62.922199
1306.640625	-59.310040
1312.500000	-54.462349
1318.359375	-51.644901
1324.218750	-36.450874
1330.078125	-30.828243
1335.937500	-33.779301
1341.796875	-38.086861
1347.656250	-45.560143
1353.515625	-63.489304
1359.375000	-68.169785
1365.234375	-72.760979
1371.093750	-72.127441
1376.953125	-70.299362
1382.812500	-72.473282
1388.671875	-76.087997
1394.531250	-80.006752
1400.390625	-78.969635
1406.250000	-79.875381
1412.109375	-81.328735
1417.968750	-84.664459
1423.828125	-88.594749
1429.687500	-85.065979
1435.546875	-84.153885
1441.406250	-84.661324
1447.265625	-83.715843
1453.125000	-84.044128
1458.984375	-82.248741
1464.843750	-82.778015
1470.703125	-83.577850
1476.562500	-83.427086
1482.421875	-82.063995
1488.281250	-80.303658
1494.140625	-80.524048
1500.000000	-82.878105
1505.859375	-81.687500
1511.718750	-79.292297
1517.578125	-78.633484
1523.437500	-80.975250
1529.296875	-79.923096
1535.156250	-78.153816
1541.015625	-78.289551
1546.875000	-80.089066
1552.734375	-82.496735
1558.593750	-81.451843
1564.453125	-82.315369
1570.312500	-83.092575
1576.171875	-83.006569
1582.031250	-81.314041
1587.890625	-79.404404
1593.750000	-78.704086
1599.609375	-78.758110
1605.468750	-81.305824
1611.328125	-80.867561
1617.187500	-78.198380
1623.046875	-78.155418
1628.906250	-77.558342
1634.765625	-76.642639
1640.625000	-74.771103
1646.484375	-76.187965
1652.343750	-78.210724
1658.203125	-81.070747
1664.062500	-81.370445
1669.921875	-80.396339
1675.781250	-78.047211
1681.640625	-74.483536
1687.500000	-72.075096
1693.359375	-72.459732
1699.218750	-73.476112
1705.078125	-73.655960
1710.937500	-73.414742
1716.796875	-73.702705
1722.656250	-77.310692
1728.515625	-76.806412
1734.375000	-74.185783
1740.234375	-70.691780
1746.093750	-68.571861
1751.953125	-66.610237
1757.812500	-59.747467
1763.671875	-47.572659
1769.531250	-38.772774
1775.390625	-39.020439
1781.250000	-47.886547
1787.109375	-52.332813
1792.968750	-55.534821
1798.828125	-68.056755
1804.687500	-69.950478
1810.546875	-70.274193
1816.406250	-74.486397
1822.265625	-75.389580
1828.125000	-76.206238
1833.984375	-78.531998
1839.843750	-79.030533
1845.703125	-76.201744
1851.562500	-74.879860
1857.421875	-75.031006
1863.281250	-76.224358
1869.140625	-76.303802
1875.000000	-74.129639
1880.859375	-72.111099
1886.718750	-73.862839
1892.578125	-76.292618
1898.437500	-80.788406
1904.296875	-83.865913
1910.156250	-86.912888
1916.015625	-82.660950
1921.875000	-78.703728
1927.734375	-78.194748
1933.593750	-77.490494
1939.453125	-75.423897
1945.312500	-74.972496
1951.171875	-78.316772
1957.031250	-78.316330
1962.890625	-76.482018
1968.750000	-75.816154
1974.609375	-79.003052
1980.468750	-83.760452
1986.328125	-81.302452
1992.187500	-82.035057
1998.046875	-81.715935
2003.906250	-81.507011
2009.765625	-83.166451
2015.625000	-83.709755
2021.484375	-82.688995
2027.343750	-81.990021
2033.203125	-81.472710
2039.062500	-80.014938
2044.921875	-81.441757
2050.781250	-83.964188
2056.640625	-82.273903
2062.500000	-82.137718
2068.359375	-85.185448
2074.218750	-83.794373
2080.078125	-80.339493
2085.937500	-79.518082
2091.796875	-82.264435
2097.656250	-82.526428
2103.515625	-80.598717
2109.375000	-78.128571
2115.234375	-79.260414
2121.093750	-80.049507
2126.953125	-81.831566
2132.812500	-81.222145
2138.671875	-80.701576
2144.531250	-83.440598
2150.390625	-82.821747
2156.250000	-78.763191
2162.109375	-78.292793
2167.968750	-77.283646
2173.828125	-75.041756
2179.687500	-73.191490
2185.546875	-72.633904
2191.406250	-67.929329
2197.265625	-61.399311
2203.125000	-48.213100
2208.984375	-34.158352
2214.843750	-31.709631
2220.703125	-37.064026
2226.562500	-42.308651
2232.421875	-42.787842
2238.281250	-43.661270
2244.140625	-52.553497
2250.000000	-70.511894
2255.859375	-70.170433
2261.718750	-74.560379
2267.578125	-79.081940
2273.437500	-76.902985
2279.296875	-76.637848
2285.156250	-76.976326
2291.015625	-77.889061
2296.875000	-76.885056
2302.734375	-74.958282
2308.593750	-73.273064
2314.453125	-73.580116
2320.312500	-72.851799
2326.171875	-71.458138
2332.031250	-71.842422
2337.890625	-69.762955
2343.750000	-69.665710
2349.609375	-69.328018
2355.468750	-69.148926
2361.328125	-69.742104
2367.187500	-70.595604
2373.046875	-70.264732
2378.906250	-71.150703
2384.765625	-73.637184
2390.625000	-73.292175
2396.484375	-71.386612
2402.343750	-70.576424
2408.203125	-73.576469
2414.062500	-73.891296
2419.921875	-75.183350
2425.781250	-76.144173
2431.640625	-75.804245
2437.500000	-78.016533
2443.359375	-75.532402
2449.218750	-75.571655
2455.078125	-78.871742
2460.937500	-81.330276
2466.796875	-81.444527
2472.656250	-82.762596
2478.515625	-80.198647
2484.375000	-78.628143
2490.234375	-78.562469
2496.093750	-77.785194
2501.953125	-77.303902
2507.812500	-77.494133
2513.671875	-75.784348
2519.531250	-75.320091
2525.390625	-73.479683
2531.250000	-73.437439
2537.109375	-74.963310
2542.968750	-72.860085
2548.828125	-71.713875
2554.687500	-72.790924
2560.546875	-74.076256
2566.406250	-73.800957
2572.265625	-72.367615
2578.125000	-71.971626
2583.984375	-75.577843
2589.843750	-76.670776
2595.703125	-73.556801
2601.562500	-72.698425
2607.421875	-72.874428
2613.281250	-70.405045
2619.140625	-71.402145
2625.000000	-69.484268
2630.859375	-65.805595
2636.718750	-65.300110
2642.578125	-57.891262
2648.437500	-39.393684
2654.296875	-30.604599
2660.156250	-30.563385
2666.015625	-35.814362
2671.875000	-39.782078
2677.734375	-39.525665
2683.593750	-37.783508
2689.453125	-42.762871
2695.312500	-55.840443
2701.171875	-57.127819
2707.031250	-60.180710
2712.890625	-60.960346
2718.750000	-60.192478
2724.609375	-60.024887
2730.468750	-60.305202
2736.328125	-61.891010
2742.187500	-62.982758
2748.046875	-65.298828
2753.906250	-66.051445
2759.765625	-67.927666
2765.625000	-68.447540
2771.484375	-68.826355
2777.343750	-69.775185
2783.203125	-71.172783
2789.062500	-71.280006
2794.921875	-72.644806
2800.781250	-70.664169
2806.640625	-69.874786
2812.500000	-71.009163
2818.359375	-72.443687
2824.218750	-72.384705
2830.078125	-70.839149
2835.937500	-69.747223
2841.796875	-70.025406
2847.656250	-70.585320
2853.515625	-71.914833
2859.375000	-74.981697
2865.234375	-78.456322
2871.093750	-79.495750
2876.953125	-79.368698
2882.812500	-77.100334
2888.671875	-76.137665
2894.531250	-75.153404
2900.390625	-77.463516
2906.250000	-79.790672
2912.109375	-78.472061
2917.968750	-76.429443
2923.828125	-76.143280
2929.687500	-77.621536
2935.546875	-80.673325
2941.406250	-83.091988
2947.265625	-77.154869
2953.125000	-73.780823
2958.984375	-73.961761
2964.843750	-74.739563
2970.703125	-72.362999
2976.562500	-72.112587
2982.421875	-72.376923
2988.281250	-71.513283
2994.140625	-71.826584
3000.000000	-71.971024
3005.859375	-74.674812
3011.718750	-73.907867
3017.578125	-69.700798
3023.437500	-68.971100
3029.296875	-71.907410
3035.156250	-73.425941
3041.015625	-73.817200
3046.875000	-76.626579
3052.734375	-76.845459
3058.593750	-73.537018
3064.453125	-71.880432
3070.312500	-69.039436
3076.171875	-64.079193
3082.031250	-59.394604
3087.890625	-55.974545
3093.750000	-43.089703
3099.609375	-38.816711
3105.468750	-40.046062
3111.328125	-46.967552
3117.187500	-50.986736
3123.046875	-49.903790
3128.906250	-46.320614
3134.765625	-47.513577
3140.625000	-56.005062
3146.484375	-61.767361
3152.343750	-62.981964
3158.203125	-63.727222
3164.062500	-62.442566
3169.921875	-61.237885
3175.781250	-60.963810
3181.640625	-62.600323
3187.500000	-64.158829
3193.359375	-64.831734
3199.218750	-64.140129
3205.078125	-64.785439
3210.937500	-65.094475
3216.796875	-66.134979
3222.656250	-67.096031
3228.515625	-67.477280
3234.375000	-68.322510
3240.234375	-67.457802
3246.093750	-66.394295
3251.953125	-67.578140
3257.812500	-68.027657
3263.671875	-68.681549
3269.531250	-69.991661
3275.390625	-67.243629
3281.250000	-63.515785
3287.109375	-61.468258
3292.968750	-61.121456
3298.828125	-62.616367
3304.687500	-68.509773
3310.546875	-71.301781
3316.406250	-64.019806
3322.265625	-62.924488
3328.125000	-62.409298
3333.984375	-62.440182
3339.843750	-62.374096
3345.703125	-62.317944
3351.562500	-61.006248
3357.421875	-62.766556
3363.281250	-70.708702
3369.140625	-73.383385
3375.000000	-73.135612
3380.859375	-74.804520
3386.718750	-75.531158
3392.578125	-76.165985
3398.437500	-74.430832
3404.296875	-73.635918
3410.156250	-73.401711
3416.015625	-71.578377
3421.875000	-67.726715
3427.734375	-66.978859
3433.593750	-65.033897
3439.453125	-65.656845
3445.312500	-67.501137
3451.171875	-67.851364
3457.031250	-67.382362
3462.890625	-67.933273
3468.750000	-69.913788
3474.609375	-70.043724
3480.468750	-66.857887
3486.328125	-64.917412
3492.187500	-66.646454
3498.046875	-68.056999
3503.906250	-67.717896
3509.765625	-65.470360
3515.625000	-63.621723
3521.484375	-61.538628
3527.343750	-58.444843
3533.203125	-48.547768
3539.062500	-41.859875
3544.921875	-42.759403
3550.781250	-46.301888
3556.640625	-50.381321
3562.500000	-51.719147
3568.359375	-51.955460
3574.218750	-49.194729
3580.078125	-47.844368
3585.937500	-53.322514
3591.796875	-63.789299
3597.656250	-67.699776
3603.515625	-68.979256
3609.375000	-69.272377
3615.234375	-69.818489
3621.093750	-70.535179
3626.953125	-71.925529
3632.812500	-72.060989
3638.671875	-75.113144
3644.531250	-78.270432
3650.390625	-76.964088
3656.250000	-73.835030
3662.109375	-72.446808
3667.968750	-69.954124
3673.828125	-67.259735
3679.687500	-66.188972
3685.546875	-65.476753
3691.406250	-63.833542
3697.265625	-63.009716
3703.125000	-64.625473
3708.984375	-65.501076
3714.843750	-66.141518
3720.703125	-67.704933
3726.562500	-67.846710
3732.421875	-66.937889
3738.281250	-66.360832
3744.140625	-66.171494
3750.000000	-64.294571
3755.859375	-63.722931
3761.718750	-63.937107
3767.578125	-65.492516
3773.437500	-65.492226
3779.296875	-64.257133
3785.156250	-64.964691
3791.015625	-69.602280
3796.875000	-68.003464
3802.734375	-68.378197
3808.593750	-70.635086
3814.453125	-71.681770
3820.312500	-75.430023
3826.171875	-77.108337
3832.031250	-77.541611
3837.890625	-76.029503
3843.750000	-72.556625
3849.609375	-71.988152
3855.468750	-70.977570
3861.328125	-70.587639
3867.187500	-71.625160
3873.046875	-74.088013
3878.906250	-74.527634
3884.765625	-75.111649
3890.625000	-73.875290
3896.484375	-71.834679
3902.343750	-71.265701
3908.203125	-73.095940
3914.062500	-74.022629
3919.921875	-74.756561
3925.781250	-72.489616
3931.640625	-71.345467
3937.500000	-71.757622
3943.359375	-71.294197
3949.218750	-70.785233
3955.078125	-68.892258
3960.937500	-67.301796
3966.796875	-67.816925
3972.656250	-56.664276
3978.515625	-44.307598
3984.375000	-40.819691
3990.234375	-41.395699
3996.093750	-43.080536
4001.953125	-46.731415
4007.812500	-50.401489
4013.671875	-52.238590
4019.531250	-52.988670
4025.390625	-50.989483
4031.250000	-54.613800
4037.109375	-65.042336
4042.968750	-67.947067
4048.828125	-70.231468
4054.687500	-72.010750
4060.546875	-72.267708
4066.406250	-74.220428
4072.265625	-77.656189
4078.125000	-77.710617
4083.984375	-78.328873
4089.843750	-79.985207
4095.703125	-82.195015
4101.562500	-86.060104
4107.421875	-84.252922
4113.281250	-82.385979
4119.140625	-80.720963
4125.000000	-78.103218
4130.859375	-75.761627
4136.718750	-75.731842
4142.578125	-77.027245
4148.437500	-79.455681
4154.296875	-78.497803
4160.156250	-79.219978
4166.015625	-79.692886
4171.875000	-77.558517
4177.734375	-76.619560
4183.593750	-76.985924
4189.453125	-77.660393
4195.312500	-78.008888
4201.171875	-79.464096
4207.031250	-79.847015
4212.890625	-79.632996
4218.750000	-79.456467
4224.609375	-79.915604
4230.468750	-82.288452
4236.328125	-82.473579
4242.187500	-81.844521
4248.046875	-83.636246
4253.906250	-87.975136
4259.765625	-86.868660
4265.625000	-83.809944
4271.484375	-81.499062
4277.343750	-82.358559
4283.203125	-80.432289
4289.062500	-79.671165
4294.921875	-79.446167
4300.781250	-79.839226
4306.640625	-80.409615
4312.500000	-79.613548
4318.359375	-81.531479
4324.218750	-82.585732
4330.078125	-83.254265
4335.937500	-83.087143
4341.796875	-84.424080
4347.656250	-85.379379
4353.515625	-86.451546
4359.375000	-84.374947
4365.234375	-81.589195
4371.093750	-79.960884
4376.953125	-79.764687
4382.812500	-81.487183
4388.671875	-79.233864
4394.531250	-75.699707
4400.390625	-71.162926
4406.250000	-68.195076
4412.109375	-65.183357
4417.968750	-55.289375
4423.828125	-47.853119
4429.687500	-45.425098
4435.546875	-43.378281
4441.406250	-47.322380
4447.265625	-51.625130
4453.125000	-53.841377
4458.984375	-55.957668
4464.843750	-59.840137
4470.703125	-59.449348
4476.562500	-60.766682
4482.421875	-67.834206
4488.281250	-71.367859
4494.140625	-71.119514
4500.000000	-71.331650
4505.859375	-73.731239
4511.718750	-76.704956
4517.578125	-78.043709
4523.437500	-78.216415
4529.296875	-79.824158
4535.156250	-80.406616
4541.015625	-80.301476
4546.875000	-80.370811
4552.734375	-79.585670
4558.593750	-78.302681
4564.453125	-79.826508
4570.312500	-81.385933
4576.171875	-84.121094
4582.031250	-88.893837
4587.890625	-90.987259
4593.750000	-87.268311
4599.609375	-83.806389
4605.468750	-82.960152
4611.328125	-84.205658
4617.187500	-84.977051
4623.046875	-86.092102
4628.906250	-86.367805
4634.765625	-83.139465
4640.625000	-82.471146
4646.484375	-84.100716
4652.343750	-86.008446
4658.203125	-88.295135
4664.062500	-88.970848
4669.921875	-87.276993
4675.781250	-86.833412
4681.640625	-88.179474
4687.500000	-91.473328
4693.359375	-91.098618
4699.218750	-89.830856
4705.078125	-90.145050
4710.937500	-91.145882
4716.796875	-90.257874
4722.656250	-92.215279
4728.515625	-92.672501
4734.375000	-91.966774
4740.234375	-88.319794
4746.093750	-88.065422
4751.953125	-88.126060
4757.812500	-87.181381
4763.671875	-87.355881
4769.531250	-90.937889
4775.390625	-90.216980
4781.250000	-88.795547
4787.109375	-88.241219
4792.968750	-85.707802
4798.828125	-83.989288
4804.687500	-82.030685
4810.546875	-79.219749
4816.406250	-77.597748
4822.265625	-77.360817
4828.125000	-77.701515
4833.984375	-76.815521
4839.843750	-76.708733
4845.703125	-73.737358
4851.562500	-70.297066
4857.421875	-64.734756
4863.281250	-54.156307
4869.140625	-50.010586
4875.000000	-48.015099
4880.859375	-47.945393
4886.718750	-54.952682
4892.578125	-60.255768
4898.437500	-62.875050
4904.296875	-63.650185
4910.156250	-65.833450
4916.015625	-61.629299
4921.875000	-60.547806
4927.734375	-66.089958
4933.593750	-75.430008
4939.453125	-77.771416
4945.312500	-82.046097
4951.171875	-87.206039
4957.031250	-86.055237
4962.890625	-84.718147
4968.750000	-84.387917
4974.609375	-85.918419
4980.468750	-86.418335
4986.328125	-87.208549
4992.187500	-89.215332
4998.046875	-87.890289
5003.906250	-86.739838
5009.765625	-86.723511
5015.625000	-84.825638
5021.484375	-85.298820
5027.343750	-85.979362
5033.203125	-86.367668
5039.062500	-86.780869
5044.921875	-86.143394
5050.781250	-84.319603
5056.640625	-85.895775
5062.500000	-87.988464
5068.359375	-86.220642
5074.218750	-86.328918
5080.078125	-89.154602
5085.937500	-90.949486
5091.796875	-89.692406
5097.656250	-88.720230
5103.515625	-87.806244
5109.375000	-86.656441
5115.234375	-87.879227
5121.093750	-89.529518
5126.953125	-89.366776
5132.812500	-87.648544
5138.671875	-86.969925
5144.531250	-87.764328
5150.390625	-88.663956
5156.250000	-89.843819
5162.109375	-89.671257
5167.968750	-88.157875
5173.828125	-87.976791
5179.687500	-88.271759
5185.546875	-88.407471
5191.406250	-91.306641
5197.265625	-91.415855
5203.125000	-90.917633
5208.984375	-92.939354
5214.843750	-93.842506
5220.703125	-92.696777
5226.562500	-92.121223
5232.421875	-90.830070
5238.281250	-91.930267
5244.140625	-93.238960
5250.000000	-93.515770
5255.859375	-91.663712
5261.718750	-90.267273
5267.578125	-88.392769
5273.437500	-88.096909
5279.296875	-84.774544
5285.156250	-82.327744
5291.015625	-74.881111
5296.875000	-68.798370
5302.734375	-62.141308
5308.593750	-55.391159
5314.453125	-55.331600
5320.312500	-54.934502
5326.171875	-56.801334
5332.031250	-59.521225
5337.890625	-63.144249
5343.750000	-70.453690
5349.609375	-75.037384
5355.468750	-77.188690
5361.328125	-73.231133
5367.187500	-69.274521
5373.046875	-68.971535
5378.906250	-73.533379
5384.765625	-81.220245
5390.625000	-83.923561
5396.484375	-85.704399
5402.343750	-85.066414
5408.203125	-84.719238
5414.062500	-85.468697
5419.921875	-87.620331
5425.781250	-86.520332
5431.640625	-84.569077
5437.500000	-84.802544
5443.359375	-84.557251
5449.218750	-83.423759
5455.078125	-84.304375
5460.937500	-85.271080
5466.796875	-86.508621
5472.656250	-86.385208
5478.515625	-84.030624
5484.375000	-82.268272
5490.234375	-83.900391
5496.093750	-81.763184
5501.953125	-81.056458
5507.812500	-81.357880
5513.671875	-83.258156
5519.531250	-85.254929
5525.390625	-86.074097
5531.250000	-84.201134
5537.109375	-82.238823
5542.968750	-82.957405
5548.828125	-82.802231
5554.687500	-84.268791
5560.546875	-83.829941
5566.406250	-83.453278
5572.265625	-85.153503
5578.125000	-86.872696
5583.984375	-86.801041
5589.843750	-86.296753
5595.703125	-83.481308
5601.562500	-85.096138
5607.421875	-83.225670
5613.281250	-81.051514
5619.140625	-79.476059
5625.000000	-79.435730
5630.859375	-81.073082
5636.718750	-83.767754
5642.578125	-84.713242
5648.437500	-86.458778
5654.296875	-84.711754
5660.156250	-83.934174
5666.015625	-81.472427
5671.875000	-78.634163
5677.734375	-78.463501
5683.593750	-79.230431
5689.453125	-78.135956
5695.312500	-77.980927
5701.171875	-77.975632
5707.031250	-75.827133
5712.890625	-76.516769
5718.750000	-78.161377
5724.609375	-78.731575
5730.468750	-75.866997
5736.328125	-72.902214
5742.187500	-65.549599
5748.046875	-58.721352
5753.906250	-58.143909
5759.765625	-59.167011
5765.625000	-56.502197
5771.484375	-60.349602
5777.343750	-64.619164
5783.203125	-66.811584
5789.062500	-71.729660
5794.921875	-77.057648
5800.781250	-79.695923
5806.640625	-77.524208
5812.500000	-72.801842
5818.359375	-71.580231
5824.218750	-76.131683
5830.078125	-82.972389
5835.937500	-83.498566
5841.796875	-83.855362
5847.656250	-84.474976
5853.515625	-83.174423
5859.375000	-81.566673
5865.234375	-81.686142
5871.093750	-79.504250
5876.953125	-79.734932
5882.812500	-81.108200
5888.671875	-81.208069
5894.531250	-84.868568
5900.390625	-82.585266
5906.250000	-83.366394
5912.109375	-85.080719
5917.968750	-86.412155
5923.828125	-86.816345
5929.687500	-86.382462
5935.546875	-87.623535
5941.406250	-88.967514
5947.265625	-89.376358
5953.125000	-89.014473
5958.984375	-84.007362
5964.843750	-83.974541
5970.703125	-84.304016
5976.562500	-85.227600
5982.421875	-87.193230
5988.281250	-90.888374
5994.140625	-87.288368
6000.000000	-85.607872
6005.859375	-86.459763
6011.718750	-87.960846
6017.578125	-87.889809
6023.437500	-87.094475
6029.296875	-88.741920
6035.156250	-90.915817
6041.015625	-92.672798
6046.875000	-90.309448
6052.734375	-90.482872
6058.593750	-92.240402
6064.453125	-94.010094
6070.312500	-93.713394
6076.171875	-93.802834
6082.031250	-94.361641
6087.890625	-94.616692
6093.750000	-95.192963
6099.609375	-93.383339
6105.468750	-92.247704
6111.328125	-91.879967
6117.187500	-92.387253
6123.046875	-92.027931
6128.906250	-92.937103
6134.765625	-91.893135
6140.625000	-92.593285
6146.484375	-94.047997
6152.343750	-94.523308
6158.203125	-95.611969
6164.062500	-92.993942
6169.921875	-88.806061
6175.781250	-85.059334
6181.640625	-80.223763
6187.500000	-73.141899
6193.359375	-65.418686
6199.218750	-61.662308
6205.078125	-58.824661
6210.937500	-58.280373
6216.796875	-62.997746
6222.656250	-66.370636
6228.515625	-71.718956
6234.375000	-78.615990
6240.234375	-78.971008
6246.093750	-80.535622
6251.953125	-81.199738
6257.812500	-79.554260
6263.671875	-77.468636
6269.531250	-80.973747
6275.390625	-87.923927
6281.250000	-87.274818
6287.109375	-86.858421
6292.968750	-87.372223
6298.828125	-86.189034
6304.687500	-86.281303
6310.546875	-87.361198
6316.406250	-87.248322
6322.265625	-88.397743
6328.125000	-88.845619
6333.984375	-89.207436
6339.843750	-88.643883
6345.703125	-84.878769
6351.562500	-83.685013
6357.421875	-86.227463
6363.281250	-89.467834
6369.140625	-88.915390
6375.000000	-90.126038
6380.859375	-89.153397
6386.718750	-87.591599
6392.578125	-86.553886
6398.437500	-87.383583
6404.296875	-87.342064
6410.156250	-87.589973
6416.015625	-85.953644
6421.875000	-85.474342
6427.734375	-87.816391
6433.593750	-89.830231
6439.453125	-88.416824
6445.312500	-86.785240
6451.171875	-85.676613
6457.031250	-85.324638
6462.890625	-87.267502
6468.750000	-86.179375
6474.609375	-86.975563
6480.468750	-87.586044
6486.328125	-87.277550
6492.187500	-85.037895
6498.046875	-85.565643
6503.906250	-83.654137
6509.765625	-83.509865
6515.625000	-85.789009
6521.484375	-85.746742
6527.343750	-85.227676
6533.203125	-83.749199
6539.062500	-84.329201
6544.921875	-86.192223
6550.781250	-85.216698
6556.640625	-85.587486
6562.500000	-84.599106
6568.359375	-84.406921
6574.218750	-85.759140
6580.078125	-86.877899
6585.937500	-85.658882
6591.796875	-84.111588
6597.656250	-83.468971
6603.515625	-84.562004
6609.375000	-83.479439
6615.234375	-81.498665
6621.093750	-76.390213
6626.953125	-68.229401
6632.812500	-59.425587
6638.671875	-56.006145
6644.531250	-59.162075
6650.390625	-60.251114
6656.250000	-62.475037
6662.109375	-69.481140
6667.968750	-74.536087
6673.828125	-77.863075
6679.687500	-77.443031
6685.546875	-76.216400
6691.406250	-77.071426
6697.265625	-79.366470
6703.125000	-79.603355
6708.984375	-75.364876
6714.843750	-75.066528
6720.703125	-79.513641
6726.562500	-83.376358
6732.421875	-84.738976
6738.281250	-84.665611
6744.140625	-86.048012
6750.000000	-88.797905
6755.859375	-87.228081
6761.718750	-86.801361
6767.578125	-85.557831
6773.437500	-83.537766
6779.296875	-83.228058
6785.156250	-84.110794
6791.015625	-81.192162
6796.875000	-80.305267
6802.734375	-82.418037
6808.593750	-83.586815
6814.453125	-83.371437
6820.312500	-84.983772
6826.171875	-85.403656
6832.031250	-83.662895
6837.890625	-83.424934
6843.750000	-85.522820
6849.609375	-85.006134
6855.468750	-83.296745
6861.328125	-83.010513
6867.187500	-84.910515
6873.046875	-86.762611
6878.906250	-86.786896
6884.765625	-83.768066
6890.625000	-81.048294
6896.484375	-79.475731
6902.343750	-80.741837
6908.203125	-83.152138
6914.062500	-83.836693
6919.921875	-83.480659
6925.781250	-83.164314
6931.640625	-83.542542
6937.500000	-81.606300
6943.359375	-80.374092
6949.218750	-79.227478
6955.078125	-80.575867
6960.937500	-83.304474
6966.796875	-82.516724
6972.656250	-82.770332
6978.515625	-82.708740
6984.375000	-81.524460
6990.234375	-80.460327
6996.093750	-78.955719
7001.953125	-79.611916
7007.812500	-79.417061
7013.671875	-79.005264
7019.531250	-80.957390
7025.390625	-80.814995
7031.250000	-80.312775
7037.109375	-81.408295
7042.968750	-83.277840
7048.828125	-82.514961
7054.687500	-80.211754
7060.546875	-76.188751
7066.406250	-72.750114
7072.265625	-65.088379
7078.125000	-58.035374
7083.984375	-56.981747
7089.843750	-58.363495
7095.703125	-55.266338
7101.562500	-58.582214
7107.421875	-64.577591
7113.281250	-67.039909
7119.140625	-70.393715
7125.000000	-71.863815
7130.859375	-69.342819
7136.718750	-69.839157
7142.578125	-70.747185
7148.437500	-70.014854
7154.296875	-70.320229
7160.156250	-71.703743
7166.015625	-78.250015
7171.875000	-81.271362
7177.734375	-81.005722
7183.593750	-83.149216
7189.453125	-81.702492
7195.312500	-81.416000
7201.171875	-82.661339
7207.031250	-83.975136
7212.890625	-84.798416
7218.750000	-86.442917
7224.609375	-85.715302
7230.468750	-85.780731
7236.328125	-84.048981
7242.187500	-85.536163
7248.046875	-85.662354
7253.906250	-85.915039
7259.765625	-85.223633
7265.625000	-84.299507
7271.484375	-84.492188
7277.343750	-86.566452
7283.203125	-87.921127
7289.062500	-87.760048
7294.921875	-87.387970
7300.781250	-87.348747
7306.640625	-86.326859
7312.500000	-83.267517
7318.359375	-83.115707
7324.218750	-83.178894
7330.078125	-82.735695
7335.937500	-83.823410
7341.796875	-82.901756
7347.656250	-84.173714
7353.515625	-85.520691
7359.375000	-87.067787
7365.234375	-86.894707
7371.093750	-85.999199
7376.953125	-86.272072
7382.812500	-85.831573
7388.671875	-85.988869
7394.531250	-87.355721
7400.390625	-88.402008
7406.250000	-87.397385
7412.109375	-86.894089
7417.968750	-86.088226
7423.828125	-83.452492
7429.687500	-85.238457
7435.546875	-85.486008
7441.406250	-84.374977
7447.265625	-86.046631
7453.125000	-86.070213
7458.984375	-85.072121
7464.843750	-85.921989
7470.703125	-87.427032
7476.562500	-86.142838
7482.421875	-85.619896
7488.281250	-85.982124
7494.140625	-85.434982
7500.000000	-84.738091
7505.859375	-82.538414
7511.718750	-78.458000
7517.578125	-71.941689
7523.437500	-68.429588
7529.296875	-68.871262
7535.156250	-67.384712
7541.015625	-66.666702
7546.875000	-70.963455
7552.734375	-79.051468
7558.593750	-81.176620
7564.453125	-81.276360
7570.312500	-80.828163
7576.171875	-81.828880
7582.031250	-83.334602
7587.890625	-83.669586
7593.750000	-81.046730
7599.609375	-79.040878
7605.468750	-78.564842
7611.328125	-81.258965
7617.187500	-83.583351
7623.046875	-85.434822
7628.906250	-85.058510
7634.765625	-86.599823
7640.625000	-86.706383
7646.484375	-86.975098
7652.343750	-87.490181
7658.203125	-86.663506
7664.062500	-87.160591
7669.921875	-87.246262
7675.781250	-86.753632
7681.640625	-86.089180
7687.500000	-87.358246
7693.359375	-89.469955
7699.218750	-90.253052
7705.078125	-89.262085
7710.937500	-88.202583
7716.796875	-89.007019
7722.656250	-89.838867
7728.515625	-89.005257
7734.375000	-90.104355
7740.234375	-91.003281
7746.093750	-91.737778
7751.953125	-89.611473
7757.812500	-87.222633
7763.671875	-88.362106
7769.531250	-89.817780
7775.390625	-90.515594
7781.250000	-90.496109
7787.109375	-93.196655
7792.968750	-92.492676
7798.828125	-90.935211
7804.687500	-90.616951
7810.546875	-90.293144
7816.406250	-91.822701
7822.265625	-90.614922
7828.125000	-89.735809
7833.984375	-90.597557
7839.843750	-90.840569
7845.703125	-91.353516
7851.562500	-90.395119
7857.421875	-91.456520
7863.281250	-89.531273
7869.140625	-89.732430
7875.000000	-92.881035
7880.859375	-89.975151
7886.718750	-90.341499
7892.578125	-91.672653
7898.437500	-88.434471
7904.296875	-88.740974
7910.156250	-90.774139
7916.015625	-88.364029
7921.875000	-85.846802
7927.734375	-86.530891
7933.593750	-86.971794
7939.453125	-86.834961
7945.312500	-84.748528
7951.171875	-80.850502
7957.031250	-73.411835
7962.890625	-67.183197
7968.750000	-64.870537
7974.609375	-67.260086
7980.468750	-67.654549
7986.328125	-69.800781
7992.187500	-75.843491
7998.046875	-77.644432
8003.906250	-76.634026
8009.765625	-78.208145
8015.625000	-80.439819
8021.484375	-83.038361
8027.343750	-84.266800
8033.203125	-85.497963
8039.062500	-81.888939
8044.921875	-76.274185
8050.781250	-72.780670
8056.640625	-74.887276
8062.500000	-82.555130
8068.359375	-82.614502
8074.218750	-83.348251
8080.078125	-83.026199
8085.937500	-83.915131
8091.796875	-85.325073
8097.656250	-84.920166
8103.515625	-83.320381
8109.375000	-81.465294
8115.234375	-83.984184
8121.093750	-87.936256
8126.953125	-85.979988
8132.812500	-86.656036
8138.671875	-88.111656
8144.531250	-86.623108
8150.390625	-85.833435
8156.250000	-86.552498
8162.109375	-85.769005
8167.968750	-84.763298
8173.828125	-83.035248
8179.687500	-84.442085
8185.546875	-84.517593
8191.406250	-85.366814
8197.265625	-85.860420
8203.125000	-85.774269
8208.984375	-86.619476
8214.843750	-86.383057
8220.703125	-88.239029
8226.562500	-88.535133
8232.421875	-87.383347
8238.281250	-86.119240
8244.140625	-86.626366
8250.000000	-87.178513
8255.859375	-85.795555
8261.718750	-84.328079
8267.578125	-85.614182
8273.437500	-85.759529
8279.296875	-87.249550
8285.156250	-86.886497
8291.015625	-85.976456
8296.875000	-85.973183
8302.734375	-86.437767
8308.593750	-85.183403
8314.453125	-86.407906
8320.312500	-86.457664
8326.171875	-86.201645
8332.031250	-87.453751
8337.890625	-86.813202
8343.750000	-85.261337
8349.609375	-84.838722
8355.468750	-85.001480
8361.328125	-85.117645
8367.187500	-83.815842
8373.046875	-84.888374
8378.906250	-85.530945
8384.765625	-84.535614
8390.625000	-83.790871
8396.484375	-79.994446
8402.343750	-74.272331
8408.203125	-70.814369
8414.062500	-70.436203
8419.921875	-72.379906
8425.781250	-69.905716
8431.640625	-72.843437
8437.500000	-81.057899
8443.359375	-87.273186
8449.218750	-85.854263
8455.078125	-86.325592
8460.937500	-86.066071
8466.796875	-87.979439
8472.656250	-88.003738
8478.515625	-89.187828
8484.375000	-84.624374
8490.234375	-80.887840
8496.093750	-77.918320
8501.953125	-77.418442
8507.812500	-80.969353
8513.671875	-84.921432
8519.531250	-87.693558
8525.390625	-88.508240
8531.250000	-88.594810
8537.109375	-90.252731
8542.968750	-90.746437
8548.828125	-89.639732
8554.687500	-89.928230
8560.546875	-90.505104
8566.406250	-90.327553
8572.265625	-89.782501
8578.125000	-90.587662
8583.984375	-94.080566
8589.843750	-94.458885
8595.703125	-93.467415
8601.562500	-92.442001
8607.421875	-90.983292
8613.281250	-91.670441
8619.140625	-92.413498
8625.000000	-92.213570
8630.859375	-91.287041
8636.718750	-89.591324
8642.578125	-88.650978
8648.437500	-89.156570
8654.296875	-89.560928
8660.156250	-88.263565
8666.015625	-88.052773
8671.875000	-87.938637
8677.734375	-89.899475
8683.593750	-88.617943
8689.453125	-87.315720
8695.312500	-87.835938
8701.171875	-89.711723
8707.031250	-91.205544
8712.890625	-91.500481
8718.750000	-90.198868
8724.609375	-89.898422
8730.468750	-90.947746
8736.328125	-90.552979
8742.187500	-89.216446
8748.046875	-89.759972
8753.906250	-90.079170
8759.765625	-90.318344
8765.625000	-89.752243
8771.484375	-89.739090
8777.343750	-87.292000
8783.203125	-87.323128
8789.062500	-88.036331
8794.921875	-89.683708
8800.781250	-90.158318
8806.640625	-89.516685
8812.500000	-87.597260
8818.359375	-87.442322
8824.218750	-88.421127
8830.078125	-86.011719
8835.937500	-82.587273
8841.796875	-78.069733
8847.656250	-73.370522
8853.515625	-71.356491
8859.375000	-73.763184
8865.234375	-73.182205
8871.093750	-72.993927
8876.953125	-74.960472
8882.812500	-75.035500
8888.671875	-72.175407
8894.531250	-74.504883
8900.390625	-77.822495
8906.250000	-80.542213
8912.109375	-84.848877
8917.968750	-83.832474
8923.828125	-84.205048
8929.687500	-84.336601
8935.546875	-82.079933
8941.406250	-78.949539
8947.265625	-76.013527
8953.125000	-75.683151
8958.984375	-79.820007
8964.843750	-89.551857
8970.703125	-87.229980
8976.562500	-88.654419
8982.421875	-90.981430
8988.281250	-90.136276
8994.140625	-89.248138
9000.000000	-88.797531
9005.859375	-90.338989
9011.718750	-90.531601
9017.578125	-91.405457
9023.437500	-92.740868
9029.296875	-90.619293
9035.156250	-90.081596
9041.015625	-90.674599
9046.875000	-90.969719
9052.734375	-89.660713
9058.593750	-88.586502
9064.453125	-89.174026
9070.312500	-90.143860
9076.171875	-90.515587
9082.031250	-88.233856
9087.890625	-89.014572
9093.750000	-90.314926
9099.609375	-89.611488
9105.468750	-89.241684
9111.328125	-89.089806
9117.187500	-91.264015
9123.046875	-90.086823
9128.906250	-90.155464
9134.765625	-89.599968
9140.625000	-90.385742
9146.484375	-91.230049
9152.343750	-92.877945
9158.203125	-92.114471
9164.062500	-90.446335
9169.921875	-89.962166
9175.781250	-90.236092
9181.640625	-89.502441
9187.500000	-90.058128
9193.359375	-91.754333
9199.218750	-93.006927
9205.078125	-90.787918
9210.937500	-88.728622
9216.796875	-90.479507
9222.656250	-92.704720
9228.515625	-91.344109
9234.375000	-90.919296
9240.234375	-92.711670
9246.093750	-94.035988
9251.953125	-92.611092
9257.812500	-91.950150
9263.671875	-91.561974
9269.531250	-91.400864
9275.390625	-87.940834
9281.250000	-81.167786
9287.109375	-74.650284
9292.968750	-72.661179
9298.828125	-73.830101
9304.687500	-75.646118
9310.546875	-70.937149
9316.406250	-71.478065
9322.265625	-74.215919
9328.125000	-77.047005
9333.984375	-75.909218
9339.843750	-80.729568
9345.703125	-78.697861
9351.562500	-78.650505
9357.421875	-80.959602
9363.281250	-82.371346
9369.140625	-82.266411
9375.000000	-82.729523
9380.859375	-82.816574
9386.718750	-80.767212
9392.578125	-81.083290
9398.437500	-79.297722
9404.296875	-79.489380
9410.156250	-85.020576
9416.015625	-88.284874
9421.875000	-87.697083
9427.734375	-90.350044
9433.593750	-88.790489
9439.453125	-88.494408
9445.312500	-90.791725
9451.171875	-90.867287
9457.031250	-91.443352
9462.890625	-91.129776
9468.750000	-92.452362
9474.609375	-91.708267
9480.468750	-91.626648
9486.328125	-91.895470
9492.187500	-91.766762
9498.046875	-90.348534
9503.906250	-88.602074
9509.765625	-88.793259
9515.625000	-90.690224
9521.484375	-91.055878
9527.343750	-90.467964
9533.203125	-91.389252
9539.062500	-92.398621
9544.921875	-92.939308
9550.781250	-93.141151
9556.640625	-91.106430
9562.500000	-94.011223
9568.359375	-92.305771
9574.218750	-92.278770
9580.078125	-93.159462
9585.937500	-92.521294
9591.796875	-91.889610
9597.656250	-93.190582
9603.515625	-93.311447
9609.375000	-91.776527
9615.234375	-91.129929
9621.093750	-92.246323
9626.953125	-92.943253
9632.812500	-93.582565
9638.671875	-93.796432
9644.531250	-94.248184
9650.390625	-94.002678
9656.250000	-93.805649
9662.109375	-93.251144
9667.968750	-93.601204
9673.828125	-92.950691
9679.687500	-92.904274
9685.546875	-93.507431
9691.406250	-93.471031
9697.265625	-93.731667
9703.125000	-92.912285
9708.984375	-92.529686
9714.843750	-92.861961
9720.703125	-90.517014
9726.562500	-86.444031
9732.421875	-83.023453
9738.281250	-82.347984
9744.140625	-80.014709
9750.000000	-80.788574
9755.859375	-79.158966
9761.718750	-76.751846
9767.578125	-79.928886
9773.437500	-83.762863
9779.296875	-83.707779
9785.156250	-83.619347
9791.015625	-84.515778
9796.875000	-85.230995
9802.734375	-85.922951
9808.593750	-86.222908
9814.453125	-88.740639
9820.312500	-88.796936
9826.171875	-88.903389
9832.031250	-89.145706
9837.890625	-85.719765
9843.750000	-82.423958
9849.609375	-82.610306
9855.468750	-86.173157
9861.328125	-92.296555
9867.187500	-91.480843
9873.046875	-92.622101
9878.906250	-93.731194
9884.765625	-93.041252
9890.625000	-93.032265
9896.484375	-94.118637
9902.343750	-92.749825
9908.203125	-92.415070
9914.062500	-94.528534
9919.921875	-94.403687
9925.781250	-94.529999
9931.640625	-96.072830
9937.500000	-96.122559
9943.359375	-94.936790
9949.218750	-92.661537
9955.078125	-93.882080
9960.937500	-96.141991
9966.796875	-95.589211
9972.656250	-96.331779
9978.515625	-93.989975
9984.375000	-93.532410
9990.234375	-95.436089
9996.093750	-95.455460
10001.953125	-95.890854
10007.812500	-94.370842
10013.671875	-94.296349
10019.531250	-96.288383
10025.390625	-94.015480
10031.250000	-93.917488
10037.109375	-93.162598
10042.968750	-93.790062
10048.828125	-92.494194
10054.687500	-93.259583
10060.546875	-92.954201
10066.406250	-92.366356
10072.265625	-93.500168
10078.125000	-91.499886
10083.984375	-90.129128
10089.843750	-91.547630
10095.703125	-92.868210
10101.562500	-92.585335
10107.421875	-91.635979
10113.281250	-91.323029
10119.140625	-91.499870
10125.000000	-92.578445
10130.859375	-93.043068
10136.718750	-93.371048
10142.578125	-93.128998
10148.437500	-92.706100
10154.296875	-92.719101
10160.156250	-90.441452
10166.015625	-85.195663
10171.875000	-81.304062
10177.734375	-78.330017
10183.593750	-76.654587
10189.453125	-77.340042
10195.312500	-77.314430
10201.171875	-76.576294
10207.031250	-78.880379
10212.890625	-81.631020
10218.750000	-84.209152
10224.609375	-83.906693
10230.468750	-86.031364
10236.328125	-88.545219
10242.187500	-87.057220
10248.046875	-87.031250
10253.906250	-86.013046
10259.765625	-85.854965
10265.625000	-87.308937
10271.484375	-89.197708
10277.343750	-90.758827
10283.203125	-87.865601
10289.062500	-83.735992
10294.921875	-84.633057
10300.781250	-87.226898
10306.640625	-89.489212
10312.500000	-91.843826
10318.359375	-90.969490
10324.218750	-92.211975
10330.078125	-93.984787
10335.937500	-91.998543
10341.796875	-92.522705
10347.656250	-92.422333
10353.515625	-92.307915
10359.375000	-91.760208
10365.234375	-92.265488
10371.093750	-92.735641
10376.953125	-93.977531
10382.812500	-92.416931
10388.671875	-92.857719
10394.531250	-92.308556
10400.390625	-90.526321
10406.250000	-91.874939
10412.109375	-94.189835
10417.968750	-93.010139
10423.828125	-92.794724
10429.687500	-92.946175
10435.546875	-93.713394
10441.406250	-93.830833
10447.265625	-93.613770
10453.125000	-92.882095
10458.984375	-92.869781
10464.843750	-93.494469
10470.703125	-93.683540
10476.562500	-95.095863
10482.421875	-93.935211
10488.281250	-92.889519
10494.140625	-91.868538
10500.000000	-93.159233
10505.859375	-93.953926
10511.718750	-92.476860
10517.578125	-92.983986
10523.437500	-90.348137
10529.296875	-90.071808
10535.156250	-91.834770
10541.015625	-91.131546
10546.875000	-92.118607
10552.734375	-92.094391
10558.593750	-90.669899
10564.453125	-90.272430
10570.312500	-91.038269
10576.171875	-90.987007
10582.031250	-92.105598
10587.890625	-93.014679
10593.750000	-92.034737
10599.609375	-90.809441
10605.468750	-91.396011
10611.328125	-86.401695
10617.187500	-81.652039
10623.046875	-79.329292
10628.906250	-80.499756
10634.765625	-82.753197
10640.625000	-79.482971
10646.484375	-79.928123
10652.343750	-82.449486
10658.203125	-83.022308
10664.062500	-79.819824
10669.921875	-78.259094
10675.781250	-84.016472
10681.640625	-86.211929
10687.500000	-87.523338
10693.359375	-89.601151
10699.218750	-88.925774
10705.078125	-88.048569
10710.937500	-89.089096
10716.796875	-89.552032
10722.656250	-90.317001
10728.515625	-87.529198
10734.375000	-83.852829
10740.234375	-82.640228
10746.093750	-83.740532
10751.953125	-86.418655
10757.812500	-90.345703
10763.671875	-90.979980
10769.531250	-91.121857
10775.390625	-92.187569
10781.250000	-92.537193
10787.109375	-92.712944
10792.968750	-92.343903
10798.828125	-91.746841
10804.687500	-92.347031
10810.546875	-93.501328
10816.406250	-96.228760
10822.265625	-93.416718
10828.125000	-92.430267
10833.984375	-93.817528
10839.843750	-95.106323
10845.703125	-93.392189
10851.562500	-92.522141
10857.421875	-92.091103
10863.281250	-93.013496
10869.140625	-92.912346
10875.000000	-93.768959
10880.859375	-93.083801
10886.718750	-93.681686
10892.578125	-93.259201
10898.437500	-92.453476
10904.296875	-93.061226
10910.156250	-94.695328
10916.015625	-96.612259
10921.875000	-95.493668
10927.734375	-94.781151
10933.593750	-92.124878
10939.453125	-93.424873
10945.312500	-92.339287
10951.171875	-92.487610
10957.031250	-94.630424
10962.890625	-94.245567
10968.750000	-92.476677
10974.609375	-93.038155
10980.468750	-93.164497
10986.328125	-92.553497
10992.187500	-92.658104
10998.046875	-92.440392
11003.906250	-92.963463
11009.765625	-93.301498
11015.625000	-94.637924
11021.484375	-94.208122
11027.343750	-95.819733
11033.203125	-96.211632
11039.062500	-94.774597
11044.921875	-92.582405
11050.781250	-92.052071
11056.640625	-88.518158
11062.500000	-87.011162
11068.359375	-85.765518
11074.218750	-83.535744
11080.078125	-82.829567
11085.937500	-84.203461
11091.796875	-86.107315
11097.656250	-86.902412
11103.515625	-87.791168
11109.375000	-85.929192
11115.234375	-85.615845
11121.093750	-89.708267
11126.953125	-91.982826
11132.812500	-93.130341
11138.671875	-93.442909
11144.531250	-90.624260
11150.390625	-90.187424
11156.250000	-89.834991
11162.109375	-90.229996
11167.968750	-91.378586
11173.828125	-91.408272
11179.687500	-87.895370
11185.546875	-86.785561
11191.406250	-89.211082
11197.265625	-91.031410
11203.125000	-92.351524
11208.984375	-91.616463
11214.843750	-90.295006
11220.703125	-90.042892
11226.562500	-92.237442
11232.421875	-91.618515
11238.281250	-90.515305
11244.140625	-92.692909
11250.000000	-93.351562
11255.859375	-92.891640
11261.718750	-92.977493
11267.578125	-91.372353
11273.437500	-90.269325
11279.296875	-92.040855
11285.156250	-93.452835
11291.015625	-90.725105
11296.875000	-89.917633
11302.734375	-91.256569
11308.593750	-93.100647
11314.453125	-91.226639
11320.312500	-91.318825
11326.171875	-92.264641
11332.031250	-92.372002
11337.890625	-91.586479
11343.750000	-90.993141
11349.609375	-91.144524
11355.468750	-93.262383
11361.328125	-94.298042
11367.187500	-92.828270
11373.046875	-90.006393
11378.906250	-88.815361
11384.765625	-89.693169
11390.625000	-88.138458
11396.484375	-87.788467
11402.343750	-90.296036
11408.203125	-90.283333
11414.062500	-89.352226
11419.921875	-89.954712
11425.781250	-90.737991
11431.640625	-91.113495
11437.500000	-90.316185
11443.359375	-90.045853
11449.218750	-91.662842
11455.078125	-91.421257
11460.937500	-91.333847
11466.796875	-91.035172
11472.656250	-91.119576
11478.515625	-90.794548
11484.375000	-89.100319
11490.234375	-87.037956
11496.093750	-81.811142
11501.953125	-80.671631
11507.812500	-78.099396
11513.671875	-79.301727
11519.531250	-82.225288
11525.390625	-83.674553
11531.250000	-81.999123
11537.109375	-80.122902
11542.968750	-81.287178
11548.828125	-83.260216
11554.687500	-82.017128
11560.546875	-80.687698
11566.406250	-85.220551
11572.265625	-86.108627
11578.125000	-86.869858
11583.984375	-88.642693
11589.843750	-86.513535
11595.703125	-86.629784
11601.562500	-86.441475
11607.421875	-88.231644
11613.281250	-90.161339
11619.140625	-90.967651
11625.000000	-91.126808
11630.859375	-90.542953
11636.718750	-90.028717
11642.578125	-91.216827
11648.437500	-92.564339
11654.296875	-92.245148
11660.156250	-93.375298
11666.015625	-93.351242
11671.875000	-94.240654
11677.734375	-91.974609
11683.593750	-91.094055
11689.453125	-92.426659
11695.312500	-93.526711
11701.171875	-94.903320
11707.031250	-94.575241
11712.890625	-92.410110
11718.750000	-92.376495
11724.609375	-94.316093
11730.468750	-95.185135
11736.328125	-93.474670
11742.187500	-94.135406
11748.046875	-94.872124
11753.906250	-95.580040
11759.765625	-95.387154
11765.625000	-94.390152
11771.484375	-94.549049
11777.343750	-95.742081
11783.203125	-95.653740
11789.062500	-95.108269
11794.921875	-95.926514
11800.781250	-95.855156
11806.640625	-97.332047
11812.500000	-95.012665
11818.359375	-93.369118
11824.218750	-93.942245
11830.078125	-94.982773
11835.937500	-94.216835
11841.796875	-95.461708
11847.656250	-95.963554
11853.515625	-94.025154
11859.375000	-94.452606
11865.234375	-94.965363
11871.093750	-95.850273
11876.953125	-95.790489
11882.812500	-95.253021
11888.671875	-94.783829
11894.531250	-95.470261
11900.390625	-96.044968
11906.250000	-95.834984
11912.109375	-95.819275
11917.968750	-94.971901
11923.828125	-96.509285
11929.687500	-93.100456
11935.546875	-87.707687
11941.406250	-82.791504
11947.265625	-81.942337
11953.125000	-82.301331
11958.984375	-84.369705
11964.843750	-86.056534
11970.703125	-83.217728
11976.562500	-84.668106
11982.421875	-87.676811
11988.281250	-90.109612
11994.140625	-89.191490
12000.000000	-85.764259
12005.859375	-85.863235
12011.718750	-87.141426
12017.578125	-84.856056
12023.437500	-87.278854
12029.296875	-90.762909
12035.156250	-90.180168
12041.015625	-89.533531
12046.875000	-88.066139
12052.734375	-89.351349
12058.593750	-89.616455
12064.453125	-88.596588
12070.312500	-88.478264
12076.171875	-88.465431
12082.031250	-89.947990
12087.890625	-90.963226
12093.750000	-91.767471
12099.609375	-93.528580
12105.468750	-93.659912
12111.328125	-93.830482
12117.187500	-92.567398
12123.046875	-91.838493
12128.906250	-91.164749
12134.765625	-92.183212
12140.625000	-94.519218
12146.484375	-94.620796
12152.343750	-93.552299
12158.203125	-92.779991
12164.062500	-92.770584
12169.921875	-94.703209
12175.781250	-92.841621
12181.640625	-92.337189
12187.500000	-92.619972
12193.359375	-93.657898
12199.218750	-94.481003
12205.078125	-94.896584
12210.937500	-94.030235
12216.796875	-93.230484
12222.656250	-94.007446
12228.515625	-93.404518
12234.375000	-92.280342
12240.234375	-92.910301
12246.093750	-92.687553
12251.953125	-92.211914
12257.812500	-90.643333
12263.671875	-91.210518
12269.531250	-92.711685
12275.390625	-91.698540
12281.250000	-90.867470
12287.109375	-90.524193
12292.968750	-91.719719
12298.828125	-93.029610
12304.687500	-91.380592
12310.546875	-91.005577
12316.406250	-91.425148
12322.265625	-90.347321
12328.125000	-89.955292
12333.984375	-90.913254
12339.843750	-92.006645
12345.703125	-92.217850
12351.562500	-92.253387
12357.421875	-92.114746
12363.281250	-91.681206
12369.140625	-92.050987
12375.000000	-90.353043
12380.859375	-84.129044
12386.718750	-81.368393
12392.578125	-82.508850
12398.437500	-83.435104
12404.296875	-85.250626
12410.156250	-84.564888
12416.015625	-82.200241
12421.875000	-82.567093
12427.734375	-83.427147
12433.593750	-87.375961
12439.453125	-90.821884
12445.312500	-86.159851
12451.171875	-84.963814
12457.031250	-85.166489
12462.890625	-84.817329
12468.750000	-87.509644
12474.609375	-89.572128
12480.468750	-90.194008
12486.328125	-91.174873
12492.187500	-89.062691
12498.046875	-89.622086
12503.906250	-91.926674
12509.765625	-90.715813
12515.625000	-89.567619
12521.484375	-90.473770
12527.343750	-92.657173
12533.203125	-93.589630
12539.062500	-93.826141
12544.921875	-95.255753
12550.781250	-94.059052
12556.640625	-94.727463
12562.500000	-95.742867
12568.359375	-95.290665
12574.218750	-94.316292
12580.078125	-93.731361
12585.937500	-96.113419
12591.796875	-94.699104
12597.656250	-95.269707
12603.515625	-94.839462
12609.375000	-96.034111
12615.234375	-95.693245
12621.093750	-95.939171
12626.953125	-95.433678
12632.812500	-95.739243
12638.671875	-97.077232
12644.531250	-97.660500
12650.390625	-95.893417
12656.250000	-95.716675
12662.109375	-95.102768
12667.968750	-94.272270
12673.828125	-94.709549
12679.687500	-95.352554
12685.546875	-96.090225
12691.406250	-97.379631
12697.265625	-96.491974
12703.125000	-94.926941
12708.984375	-95.875351
12714.843750	-95.014542
12720.703125	-94.565628
12726.562500	-94.849297
12732.421875	-95.624054
12738.281250	-97.015335
12744.140625	-96.259453
12750.000000	-95.928947
12755.859375	-97.910767
12761.718750	-95.251213
12767.578125	-92.785469
12773.437500	-94.787231
12779.296875	-95.768364
12785.156250	-95.906891
12791.015625	-95.895447
12796.875000	-97.315163
12802.734375	-98.908386
12808.593750	-96.862892
12814.453125	-95.946686
12820.312500	-94.972839
12826.171875	-91.611168
12832.031250	-89.974205
12837.890625	-87.677208
12843.750000	-86.777229
12849.609375	-89.579346
12855.468750	-87.962585
12861.328125	-88.391907
12867.187500	-85.533112
12873.046875	-85.370941
12878.906250	-88.979881
12884.765625	-91.311111
12890.625000	-90.930428
12896.484375	-92.548676
12902.343750	-95.693336
12908.203125	-95.415413
12914.062500	-93.905937
12919.921875	-93.647957
12925.781250	-94.583748
12931.640625	-95.528969
12937.500000	-95.118813
12943.359375	-92.984222
12949.218750	-95.614212
12955.078125	-95.805061
12960.937500	-93.187592
12966.796875	-90.963837
12972.656250	-90.353424
12978.515625	-90.873474
12984.375000	-92.582733
12990.234375	-93.613449
12996.093750	-94.228294
13001.953125	-95.707115
13007.812500	-95.670212
13013.671875	-94.857803
13019.531250	-95.752769
13025.390625	-95.575493
13031.250000	-94.553009
13037.109375	-96.593033
13042.968750	-95.507607
13048.828125	-94.923248
13054.687500	-96.516586
13060.546875	-98.155083
13066.406250	-98.994484
13072.265625	-99.160149
13078.125000	-97.893234
13083.984375	-96.866997
13089.843750	-96.831650
13095.703125	-97.138634
13101.562500	-97.086411
13107.421875	-97.162994
13113.281250	-96.664253
13119.140625	-96.919731
13125.000000	-96.211411
13130.859375	-97.310944
13136.718750	-99.037453
13142.578125	-97.791451
13148.437500	-97.812202
13154.296875	-96.451851
13160.156250	-94.957504
13166.015625	-96.088348
13171.875000	-95.585915
13177.734375	-94.901405
13183.593750	-97.447121
13189.453125	-100.538521
13195.312500	-98.462128
13201.171875	-95.902756
13207.031250	-94.375908
13212.890625	-94.936790
13218.750000	-96.315239
13224.609375	-97.808067
13230.468750	-97.194473
13236.328125	-96.428764
13242.187500	-96.814278
13248.046875	-97.268135
13253.906250	-98.075470
13259.765625	-96.290604
13265.625000	-94.162369
13271.484375	-92.407372
13277.343750	-89.646324
13283.203125	-91.274910
13289.062500	-93.903114
13294.921875	-91.520958
13300.781250	-90.502647
13306.640625	-89.121246
13312.500000	-88.494957
13318.359375	-91.612114
13324.218750	-93.318642
13330.078125	-92.998894
13335.937500	-92.212196
13341.796875	-95.464188
13347.656250	-94.312820
13353.515625	-93.210808
13359.375000	-93.975731
13365.234375	-94.036133
13371.093750	-94.604462
13376.953125	-95.136536
13382.812500	-94.527405
13388.671875	-95.002556
13394.531250	-98.039017
13400.390625	-97.770363
13406.250000	-97.145393
13412.109375	-98.123665
13417.968750	-98.401146
13423.828125	-96.616577
13429.687500	-96.583679
13435.546875	-97.467613
13441.406250	-97.797813
13447.265625	-97.384499
13453.125000	-98.168121
13458.984375	-99.839500
13464.843750	-99.098022
13470.703125	-99.129143
13476.562500	-100.634186
13482.421875	-98.324379
13488.281250	-97.485077
13494.140625	-99.841125
13500.000000	-98.695389
13505.859375	-100.444122
13511.718750	-99.230522
13517.578125	-97.483116
13523.437500	-98.014999
13529.296875	-100.521431
13535.156250	-99.632950
13541.015625	-98.283607
13546.875000	-96.956612
13552.734375	-96.094086
13558.593750	-96.132011
13564.453125	-95.958305
13570.312500	-94.898972
13576.171875	-95.502838
13582.031250	-97.565201
13587.890625	-96.371956
13593.750000	-96.406197
13599.609375	-97.197708
13605.468750	-98.030495
13611.328125	-97.161827
13617.187500	-95.918915
13623.046875	-97.035179
13628.906250	-97.561104
13634.765625	-97.883659
13640.625000	-97.484169
13646.484375	-96.636719
13652.343750	-96.234985
13658.203125	-95.480988
13664.062500	-96.104637
13669.921875	-95.822960
13675.781250	-96.633041
13681.640625	-96.378357
13687.500000	-95.981239
13693.359375	-95.783661
13699.218750	-96.085861
13705.078125	-94.418060
13710.937500	-92.329659
13716.796875	-90.735229
13722.656250	-89.586906
13728.515625	-90.394226
13734.375000	-92.211029
13740.234375	-88.322899
13746.093750	-86.173843
13751.953125	-85.382874
13757.812500	-86.996414
13763.671875	-89.417618
13769.531250	-91.081970
13775.390625	-89.626038
13781.250000	-91.981956
13787.109375	-93.803459
13792.968750	-92.716782
13798.828125	-90.131546
13804.687500	-90.654762
13810.546875	-91.533669
13816.406250	-91.159592
13822.265625	-91.591782
13828.125000	-90.836082
13833.984375	-90.256470
13839.843750	-92.526917
13845.703125	-93.843201
13851.562500	-92.900124
13857.421875	-93.022881
13863.281250	-93.211266
13869.140625	-93.358643
13875.000000	-95.057091
13880.859375	-94.738617
13886.718750	-93.364510
13892.578125	-93.400421
13898.437500	-93.984879
13904.296875	-94.334412
13910.156250	-94.709084
13916.015625	-97.553047
13921.875000	-96.056435
13927.734375	-94.776443
13933.593750	-94.618645
13939.453125	-95.876785
13945.312500	-94.619316
13951.171875	-95.099174
13957.031250	-95.329170
13962.890625	-95.540741
13968.750000	-96.298592
13974.609375	-96.548004
13980.468750	-95.784607
13986.328125	-96.380051
13992.187500	-97.875214
13998.046875	-96.233566
14003.906250	-95.246460
14009.765625	-96.024078
14015.625000	-97.265060
14021.484375	-97.615929
14027.343750	-96.671524
14033.203125	-96.205444
14039.062500	-96.886345
14044.921875	-97.461586
14050.781250	-98.707611
14056.640625	-96.942719
14062.500000	-97.018555
14068.359375	-95.837448
14074.218750	-95.221413
14080.078125	-95.195251
14085.937500	-96.163368
14091.796875	-95.731308
14097.656250	-94.056015
14103.515625	-96.369614
14109.375000	-97.440086
14115.234375	-97.370483
14121.093750	-98.351685
14126.953125	-96.745621
14132.812500	-95.612839
14138.671875	-95.499130
14144.531250	-97.082565
14150.390625	-93.173775
14156.250000	-90.680756
14162.109375	-89.615326
14167.968750	-88.522598
14173.828125	-90.429955
14179.687500	-94.209381
14185.546875	-91.716957
14191.406250	-89.261147
14197.265625	-88.265488
14203.125000	-90.718102
14208.984375	-91.534058
14214.843750	-94.310158
14220.703125	-94.879082
14226.562500	-94.650726
14232.421875	-95.845001
14238.281250	-94.658981
14244.140625	-92.715431
14250.000000	-92.345619
14255.859375	-93.282021
14261.718750	-93.101730
14267.578125	-94.371315
14273.437500	-94.011497
14279.296875	-93.206711
14285.156250	-93.675446
14291.015625	-93.764977
14296.875000	-94.722710
14302.734375	-95.999809
14308.593750	-96.203506
14314.453125	-95.968529
14320.312500	-94.924858
14326.171875	-95.446434
14332.031250	-95.903130
14337.890625	-94.889183
14343.750000	-95.108597
14349.609375	-94.324333
14355.468750	-95.838074
14361.328125	-96.242477
14367.187500	-94.912941
14373.046875	-94.894806
14378.906250	-95.165810
14384.765625	-95.592056
14390.625000	-95.874313
14396.484375	-96.513802
14402.343750	-96.209557
14408.203125	-98.394104
14414.062500	-97.615097
14419.921875	-96.640717
14425.781250	-96.619598
14431.640625	-95.193001
14437.500000	-96.651253
14443.359375	-97.154930
14449.218750	-94.417656
14455.078125	-94.247604
14460.937500	-94.778801
14466.796875	-95.166031
14472.656250	-95.904594
14478.515625	-97.907288
14484.375000	-97.259636
14490.234375	-96.696602
14496.093750	-95.989952
14501.953125	-95.989433
14507.812500	-96.181725
14513.671875	-95.990677
14519.531250	-95.775841
14525.390625	-95.637604
14531.250000	-97.329071
14537.109375	-97.982094
14542.968750	-96.608826
14548.828125	-97.044464
14554.687500	-98.062233
14560.546875	-99.735016
14566.406250	-96.601227
14572.265625	-93.556442
14578.125000	-92.346329
14583.984375	-93.886612
14589.843750	-92.697975
14595.703125	-88.787239
14601.562500	-86.856285
14607.421875	-86.948112
14613.281250	-87.593048
14619.140625	-91.121262
14625.000000	-89.383080
14630.859375	-86.044617
14636.718750	-85.800301
14642.578125	-87.957726
14648.437500	-90.128250
14654.296875	-90.421684
14660.156250	-92.308823
14666.015625	-91.184464
14671.875000	-92.962120
14677.734375	-96.434990
14683.593750	-96.248222
14689.453125	-95.381035
14695.312500	-93.926872
14701.171875	-94.885643
14707.031250	-93.365288
14712.890625	-93.603279
14718.750000	-93.329697
14724.609375	-92.998634
14730.468750	-93.645126
14736.328125	-93.665184
14742.187500	-95.750603
14748.046875	-95.919128
14753.906250	-94.203117
14759.765625	-91.009125
14765.625000	-92.461334
14771.484375	-94.119812
14777.343750	-94.184258
14783.203125	-94.281311
14789.062500	-94.790543
14794.921875	-94.260712
14800.781250	-95.245979
14806.640625	-93.973557
14812.500000	-94.287895
14818.359375	-96.410255
14824.218750	-95.796478
14830.078125	-95.102104
14835.937500	-94.983261
14841.796875	-96.311714
14847.656250	-96.176788
14853.515625	-96.428009
14859.375000	-97.638863
14865.234375	-98.225136
14871.093750	-96.573929
14876.953125	-97.509010
14882.812500	-95.971321
14888.671875	-95.801880
14894.531250	-95.608307
14900.390625	-96.247688
14906.250000	-97.407265
14912.109375	-96.598198
14917.968750	-97.182144
14923.828125	-96.384621
14929.687500	-96.258873
14935.546875	-98.444130
14941.406250	-97.323441
14947.265625	-96.488899
14953.125000	-97.112633
14958.984375	-98.528038
14964.843750	-97.205772
14970.703125	-96.218658
14976.562500	-96.583862
14982.421875	-97.039261
14988.281250	-97.363068
14994.140625	-97.647682
15000.000000	-98.182022
15005.859375	-98.037117
15011.718750	-97.587456
15017.578125	-95.782753
15023.437500	-95.717064
15029.296875	-97.465157
15035.156250	-97.857666
15041.015625	-94.580795
15046.875000	-92.738060
15052.734375	-91.324051
15058.593750	-92.946785
15064.453125	-96.672455
15070.312500	-94.058823
15076.171875	-92.688492
15082.031250	-93.123497
15087.890625	-93.179993
15093.750000	-94.161079
15099.609375	-95.255325
15105.468750	-95.651115
15111.328125	-92.956154
15117.187500	-95.459938
15123.046875	-96.398224
15128.906250	-97.642815
15134.765625	-97.687675
15140.625000	-96.359413
15146.484375	-95.994301
15152.343750	-95.997162
15158.203125	-95.925430
15164.062500	-97.136597
15169.921875	-97.246597
15175.781250	-95.922318
15181.640625	-96.172211
15187.500000	-97.604630
15193.359375	-96.521935
15199.218750	-95.166061
15205.078125	-93.203468
15210.937500	-94.570953
15216.796875	-95.735046
15222.656250	-96.040840
15228.515625	-98.387100
15234.375000	-98.427887
15240.234375	-96.390785
15246.093750	-96.546516
15251.953125	-96.182381
15257.812500	-96.635849
15263.671875	-98.277390
15269.531250	-97.124161
15275.390625	-96.041237
15281.250000	-96.450661
15287.109375	-96.845886
15292.968750	-96.293373
15298.828125	-96.750687
15304.687500	-97.560722
15310.546875	-97.766846
15316.406250	-97.989525
15322.265625	-97.589752
15328.125000	-95.330856
15333.984375	-95.768578
15339.843750	-98.683083
15345.703125	-99.763741
15351.562500	-99.191925
15357.421875	-98.939781
15363.281250	-99.519066
15369.140625	-97.909920
15375.000000	-99.071899
15380.859375	-100.126335
15386.718750	-99.974686
15392.578125	-98.727379
15398.437500	-99.341347
15404.296875	-98.824524
15410.156250	-99.420235
15416.015625	-101.366623
15421.875000	-100.364471
15427.734375	-99.675499
15433.593750	-99.754631
15439.453125	-99.901581
15445.312500	-100.448570
15451.171875	-96.932289
15457.031250	-97.882195
15462.890625	-99.253891
15468.750000	-96.496597
15474.609375	-94.172821
15480.468750	-90.828407
15486.328125	-90.016640
15492.187500	-89.506279
15498.046875	-89.400055
15503.906250	-94.229195
15509.765625	-93.599922
15515.625000	-90.045891
15521.484375	-88.794601
15527.343750	-91.928917
15533.203125	-93.162971
15539.062500	-95.839325
15544.921875	-94.129128
15550.781250	-93.614571
15556.640625	-91.986740
15562.500000	-94.651070
15568.359375	-96.003891
15574.218750	-97.708305
15580.078125	-97.942307
15585.937500	-97.211586
15591.796875	-98.310051
15597.656250	-97.278442
15603.515625	-96.834290
15609.375000	-98.105171
15615.234375	-99.122002
15621.093750	-98.400650
15626.953125	-98.756248
15632.812500	-96.639626
15638.671875	-95.628807
15644.531250	-95.746727
15650.390625	-94.939384
15656.250000	-96.484505
15662.109375	-97.343430
15667.968750	-98.449982
15673.828125	-99.304817
15679.687500	-99.829445
15685.546875	-99.511421
15691.406250	-96.936264
15697.265625	-95.577637
15703.125000	-96.035034
15708.984375	-96.561424
15714.843750	-97.562653
15720.703125	-99.622063
15726.562500	-98.669930
15732.421875	-98.611572
15738.281250	-97.964088
15744.140625	-97.026993
15750.000000	-96.421364
15755.859375	-95.930473
15761.718750	-96.220734
15767.578125	-98.835159
15773.437500	-97.598434
15779.296875	-98.681137
15785.156250	-99.586082
15791.015625	-100.562271
15796.875000	-98.761101
15802.734375	-97.460899
15808.593750	-99.190628
15814.453125	-99.050735
15820.312500	-99.035988
15826.171875	-98.024834
15832.031250	-97.589745
15837.890625	-97.873360
15843.750000	-97.753990
15849.609375	-97.633034
15855.468750	-98.311630
15861.328125	-98.044373
15867.187500	-98.224831
15873.046875	-99.648590
15878.906250	-99.696487
15884.765625	-100.164238
15890.625000	-99.362373
15896.484375	-97.044220
15902.343750	-96.889145
15908.203125	-98.807114
15914.062500	-97.149467
15919.921875	-95.032021
15925.781250	-93.983444
15931.640625	-96.613350
15937.500000	-98.196686
15943.359375	-98.215050
15949.218750	-98.951675
15955.078125	-97.901871
15960.937500	-94.912857
15966.796875	-94.855980
15972.656250	-97.958504
15978.515625	-98.554260
15984.375000	-99.011116
15990.234375	-98.931717
15996.093750	-97.543816
16001.953125	-95.842476
16007.812500	-96.649597
16013.671875	-96.970055
16019.531250	-98.126732
16025.390625	-97.904564
16031.250000	-99.477455
16037.109375	-98.213051
16042.968750	-96.651871
16048.828125	-97.035576
16054.687500	-97.853661
16060.546875	-96.717705
16066.406250	-97.867668
16072.265625	-98.703896
16078.125000	-96.950020
16083.984375	-97.095871
16089.843750	-96.447937
16095.703125	-96.450966
16101.562500	-96.943626
16107.421875	-97.644882
16113.281250	-98.022209
16119.140625	-99.387672
16125.000000	-98.925018
16130.859375	-98.684502
16136.718750	-98.039513
16142.578125	-98.538300
16148.437500	-98.401657
16154.296875	-98.329994
16160.156250	-98.331383
16166.015625	-98.929619
16171.875000	-98.819084
16177.734375	-99.322197
16183.593750	-99.125824
16189.453125	-98.838394
16195.312500	-99.101135
16201.171875	-99.670425
16207.031250	-99.909958
16212.890625	-100.246826
16218.750000	-100.060455
16224.609375	-101.096764
16230.468750	-101.071838
16236.328125	-100.113457
16242.187500	-99.695671
16248.046875	-98.686005
16253.906250	-99.840271
16259.765625	-99.939758
16265.625000	-100.784477
16271.484375	-100.327560
16277.343750	-99.003983
16283.203125	-100.853073
16289.062500	-101.284576
16294.921875	-100.554802
16300.781250	-99.992714
16306.640625	-100.191933
16312.500000	-99.503082
16318.359375	-99.552208
16324.218750	-99.816940
16330.078125	-100.351418
16335.937500	-100.893898
16341.796875	-101.176559
16347.656250	-100.187637
16353.515625	-100.737061
16359.375000	-101.736374
16365.234375	-100.182381
16371.093750	-98.763649
16376.953125	-99.231491
16382.812500	-99.129257
16388.671875	-102.073608
16394.531250	-102.062302
16400.390625	-99.576248
16406.250000	-99.918121
16412.109375	-99.287910
16417.968750	-97.149261
16423.828125	-96.980186
16429.687500	-98.794037
16435.546875	-100.175728
16441.406250	-99.830162
16447.265625	-99.910583
16453.125000	-99.754715
16458.984375	-99.619423
16464.843750	-99.528664
16470.703125	-100.909142
16476.562500	-101.275536
16482.421875	-101.162193
16488.281250	-100.579674
16494.140625	-100.872215
16500.000000	-101.574173
16505.859375	-101.958038
16511.718750	-101.843819
16517.578125	-101.676590
16523.437500	-100.582924
16529.296875	-100.114433
16535.156250	-100.306206
16541.015625	-100.276146
16546.875000	-100.924194
16552.734375	-100.815430
16558.593750	-100.417221
16564.453125	-100.683571
16570.312500	-99.705269
16576.171875	-99.396835
16582.031250	-99.057465
16587.890625	-101.226715
16593.750000	-102.282455
16599.609375	-100.650658
16605.468750	-99.502686
16611.328125	-100.677361
16617.187500	-100.782791
16623.046875	-100.946442
16628.906250	-99.117599
16634.765625	-100.193901
16640.625000	-100.469887
16646.484375	-99.566940
16652.343750	-100.063278
16658.203125	-99.646255
16664.062500	-101.076385
16669.921875	-101.400787
16675.781250	-101.588181
16681.640625	-99.360100
16687.500000	-99.654449
16693.359375	-101.962479
16699.218750	-100.358971
16705.078125	-101.296303
16710.937500	-100.676727
16716.796875	-99.397667
16722.656250	-99.851288
16728.515625	-101.343727
16734.375000	-100.185287
16740.234375	-99.087784
16746.093750	-99.451668
16751.953125	-99.855797
16757.812500	-101.608948
16763.671875	-101.481743
16769.531250	-101.241913
16775.390625	-99.663811
16781.250000	-98.772041
16787.109375	-98.388046
16792.968750	-100.390205
16798.828125	-101.133240
16804.687500	-98.863449
16810.546875	-97.733017
16816.406250	-97.661789
16822.265625	-95.261414
16828.125000	-95.307571
16833.984375	-98.334595
16839.843750	-97.620209
16845.703125	-97.039246
16851.562500	-95.242325
16857.421875	-95.066177
16863.281250	-95.554024
16869.140625	-98.516327
16875.000000	-100.257599
16880.859375	-100.390427
16886.718750	-100.566765
16892.578125	-100.453629
16898.437500	-99.527641
16904.296875	-101.188377
16910.156250	-100.798813
16916.015625	-100.757515
16921.875000	-100.360382
16927.734375	-100.064735
16933.593750	-100.428070
16939.453125	-101.281921
16945.312500	-101.460266
16951.171875	-100.607697
16957.031250	-100.913895
16962.890625	-101.177452
16968.750000	-99.885872
16974.609375	-99.491585
16980.468750	-99.641495
16986.328125	-100.776115
16992.187500	-101.171997
16998.046875	-100.362701
17003.906250	-101.465355
17009.765625	-101.276146
17015.625000	-99.779724
17021.484375	-100.105713
17027.343750	-100.139442
17033.203125	-100.277573
17039.062500	-100.594475
17044.921875	-99.741394
17050.781250	-100.029198
17056.640625	-99.924004
17062.500000	-100.324570
17068.359375	-98.760780
17074.218750	-99.089317
17080.078125	-99.667603
17085.937500	-99.389305
17091.796875	-99.941299
17097.656250	-100.502357
17103.515625	-100.751953
17109.375000	-100.166702
17115.234375	-102.079163
17121.093750	-103.360054
17126.953125	-100.334892
17132.812500	-100.329498
17138.671875	-101.767372
17144.531250	-100.138847
17150.390625	-100.944580
17156.250000	-102.731194
17162.109375	-100.717155
17167.968750	-102.681023
17173.828125	-103.886269
17179.687500	-101.920227
17185.546875	-102.490479
17191.406250	-102.033073
17197.265625	-102.193428
17203.125000	-101.687157
17208.984375	-102.634735
17214.843750	-101.651894
17220.703125	-101.696609
17226.562500	-103.567734
17232.421875	-100.274048
17238.281250	-101.635689
17244.140625	-100.914909
17250.000000	-96.730988
17255.859375	-97.475334
17261.718750	-99.527855
17267.578125	-99.442612
17273.437500	-100.088951
17279.296875	-101.523544
17285.156250	-97.905182
17291.015625	-96.332603
17296.875000	-95.006958
17302.734375	-98.371902
17308.593750	-99.232262
17314.453125	-101.035522
17320.312500	-101.538109
17326.171875	-100.399704
17332.031250	-99.794159
17337.890625	-101.763618
17343.750000	-103.918076
17349.609375	-102.730728
17355.468750	-102.704926
17361.328125	-103.399620
17367.187500	-102.990578
17373.046875	-103.285332
17378.906250	-103.161728
17384.765625	-102.301262
17390.625000	-101.809875
17396.484375	-101.619896
17402.343750	-102.471771
17408.203125	-101.422783
17414.062500	-100.408142
17419.921875	-101.107872
17425.781250	-102.278740
17431.640625	-102.047371
17437.500000	-101.206223
17443.359375	-101.431435
17449.218750	-102.735222
17455.078125	-101.623055
17460.937500	-102.055641
17466.796875	-102.004692
17472.656250	-103.570015
17478.515625	-103.186844
17484.375000	-102.297241
17490.234375	-101.472404
17496.093750	-101.578087
17501.953125	-100.971680
17507.812500	-101.214409
17513.671875	-100.805283
17519.531250	-101.664886
17525.390625	-102.868591
17531.250000	-102.183037
17537.109375	-102.205994
17542.968750	-102.670242
17548.828125	-102.709106
17554.687500	-102.494850
17560.546875	-104.134270
17566.406250	-104.969963
17572.265625	-102.780106
17578.125000	-103.285301
17583.984375	-103.188835
17589.843750	-101.746544
17595.703125	-103.259895
17601.562500	-103.053711
17607.421875	-102.546211
17613.281250	-103.436035
17619.140625	-103.476631
17625.000000	-103.059296
17630.859375	-103.642227
17636.718750	-104.232750
17642.578125	-104.212021
17648.437500	-103.646423
17654.296875	-103.725365
17660.156250	-103.959900
17666.015625	-104.251266
17671.875000	-103.069756
17677.734375	-102.111641
17683.593750	-102.364601
17689.453125	-99.211304
17695.312500	-96.840851
17701.171875	-98.037292
17707.031250	-97.577065
17712.890625	-98.775345
17718.750000	-101.046242
17724.609375	-101.226936
17730.468750	-98.750801
17736.328125	-97.221390
17742.187500	-98.423447
17748.046875	-100.506760
17753.906250	-101.271294
17759.765625	-103.428131
17765.625000	-103.873505
17771.484375	-102.221855
17777.343750	-102.576797
17783.203125	-105.053978
17789.062500	-104.970825
17794.921875	-104.711296
17800.781250	-106.323555
17806.640625	-104.466797
17812.500000	-105.283813
17818.359375	-105.892624
17824.218750	-104.667320
17830.078125	-105.080513
17835.937500	-105.615891
17841.796875	-104.734123
17847.656250	-105.231194
17853.515625	-106.277771
17859.375000	-107.758255
17865.234375	-106.371605
17871.093750	-107.576744
17876.953125	-106.615295
17882.812500	-104.976326
17888.671875	-106.147491
17894.531250	-106.125458
17900.390625	-105.753510
17906.250000	-105.755318
17912.109375	-107.640511
17917.968750	-108.883652
17923.828125	-107.410065
17929.687500	-106.970436
17935.546875	-107.595512
17941.406250	-106.818367
17947.265625	-106.481781
17953.125000	-107.642365
17958.984375	-107.782516
17964.843750	-108.174561
17970.703125	-106.611725
17976.562500	-107.760971
17982.421875	-108.164268
17988.281250	-108.269890
17994.140625	-107.962189
18000.000000	-107.209595
18005.859375	-108.582001
18011.718750	-109.266228
18017.578125	-107.420403
18023.437500	-108.248459
18029.296875	-108.476196
18035.156250	-108.586823
18041.015625	-109.502197
18046.875000	-107.174454
18052.734375	-106.479607
18058.593750	-108.018326
18064.453125	-108.561737
18070.312500	-109.930107
18076.171875	-109.794624
18082.031250	-108.707474
18087.890625	-108.139748
18093.750000	-105.695068
18099.609375	-106.445816
18105.468750	-108.339714
18111.328125	-108.913628
18117.187500	-108.012634
18123.046875	-108.390137
18128.906250	-108.554680
18134.765625	-105.771950
18140.625000	-104.170990
18146.484375	-104.780777
18152.343750	-104.369812
18158.203125	-104.532875
18164.062500	-105.524574
18169.921875	-104.367157
18175.781250	-102.211517
18181.640625	-101.892258
18187.500000	-104.480911
18193.359375	-106.639160
18199.218750	-107.537247
18205.078125	-108.078842
18210.937500	-108.878853
18216.796875	-108.165245
18222.656250	-107.626366
18228.515625	-108.176064
18234.375000	-108.947762
18240.234375	-109.240639
18246.093750	-111.446701
18251.953125	-108.831581
18257.812500	-108.718613
18263.671875	-107.341034
18269.531250	-107.858475
18275.390625	-109.119553
18281.250000	-110.282333
18287.109375	-109.518723
18292.968750	-107.533607
18298.828125	-106.868416
18304.687500	-108.848831
18310.546875	-109.088593
18316.406250	-109.185547
18322.265625	-110.305855
18328.125000	-107.796417
18333.984375	-107.608589
18339.843750	-108.391388
18345.703125	-106.640724
18351.562500	-106.218254
18357.421875	-106.966980
18363.281250	-106.716248
18369.140625	-106.775749
18375.000000	-106.345428
18380.859375	-108.560326
18386.718750	-109.956314
18392.578125	-107.549248
18398.437500	-106.892586
18404.296875	-107.289635
18410.156250	-109.227562
18416.015625	-106.597954
18421.875000	-106.678192
18427.734375	-107.030579
18433.593750	-106.489815
18439.453125	-107.220383
18445.312500	-108.832199
18451.171875	-108.992249
18457.031250	-107.852547
18462.890625	-107.267464
18468.750000	-106.312592
18474.609375	-106.505058
18480.468750	-107.927780
18486.328125	-109.450668
18492.187500	-107.056778
18498.046875	-108.089851
18503.906250	-107.476768
18509.765625	-108.778984
18515.625000	-109.306870
18521.484375	-108.581375
18527.343750	-107.295738
18533.203125	-106.319931
18539.062500	-107.720863
18544.921875	-107.109962
18550.781250	-106.440842
18556.640625	-106.947601
18562.500000	-108.259560
18568.359375	-105.710793
18574.218750	-104.567619
18580.078125	-104.781433
18585.937500	-104.631317
18591.796875	-104.008598
18597.656250	-103.533203
18603.515625	-104.289627
18609.375000	-105.135841
18615.234375	-102.669884
18621.093750	-102.703148
18626.953125	-103.148804
18632.812500	-102.519211
18638.671875	-103.797920
18644.531250	-104.698120
18650.390625	-105.278069
18656.250000	-106.900314
18662.109375	-106.404045
18667.968750	-104.998520
18673.828125	-105.536690
18679.687500	-107.345909
18685.546875	-106.699593
18691.406250	-105.594276
18697.265625	-105.143738
18703.125000	-108.023491
18708.984375	-108.220146
18714.843750	-108.015152
18720.703125	-106.341209
18726.562500	-105.251999
18732.421875	-106.890572
18738.281250	-108.159378
18744.140625	-109.060745
18750.000000	-109.584915
18755.859375	-107.343254
18761.718750	-106.991890
18767.578125	-107.854416
18773.437500	-108.474785
18779.296875	-107.646896
18785.156250	-107.072556
18791.015625	-105.890518
18796.875000	-108.539963
18802.734375	-108.698784
18808.593750	-107.834953
18814.453125	-108.555984
18820.312500	-109.402435
18826.171875	-108.273117
18832.031250	-107.820793
18837.890625	-109.318939
18843.750000	-110.750618
18849.609375	-109.693008
18855.468750	-108.599503
18861.328125	-107.387306
18867.187500	-107.495918
18873.046875	-108.450378
18878.906250	-110.239838
18884.765625	-109.843979
18890.625000	-110.905579
18896.484375	-109.974083
18902.343750	-109.801888
18908.203125	-108.893066
18914.062500	-109.243721
18919.921875	-110.139214
18925.781250	-109.460602
18931.640625	-110.066055
18937.500000	-108.921638
18943.359375	-108.594368
18949.218750	-109.340485
18955.078125	-108.531700
18960.937500	-110.908089
18966.796875	-107.979149
18972.656250	-106.367226
18978.515625	-108.261368
18984.375000	-108.926071
18990.234375	-108.272644
18996.093750	-109.340225
19001.953125	-107.505302
19007.812500	-105.500397
19013.671875	-104.394089
19019.531250	-101.464966
19025.390625	-102.293159
19031.250000	-104.333878
19037.109375	-101.669540
19042.968750	-103.507835
19048.828125	-105.297325
19054.687500	-105.728142
19060.546875	-103.146042
19066.406250	-102.200821
19072.265625	-102.141609
19078.125000	-102.147911
19083.984375	-104.088249
19089.843750	-106.505821
19095.703125	-106.472549
19101.562500	-106.498535
19107.421875	-106.424767
19113.281250	-108.243637
19119.140625	-109.001297
19125.000000	-108.536888
19130.859375	-107.582581
19136.718750	-106.668091
19142.578125	-107.162468
19148.437500	-107.517448
19154.296875	-107.996040
19160.156250	-109.145012
19166.015625	-108.877022
19171.875000	-108.833008
19177.734375	-109.547249
19183.593750	-108.816132
19189.453125	-109.189476
19195.312500	-109.024239
19201.171875	-109.087044
19207.031250	-110.721222
19212.890625	-110.388229
19218.750000	-109.729523
19224.609375	-110.927147
19230.468750	-108.192299
19236.328125	-107.267471
19242.187500	-108.911407
19248.046875	-107.388832
19253.906250	-108.516594
19259.765625	-109.389107
19265.625000	-109.039360
19271.484375	-108.564232
19277.343750	-108.792076
19283.203125	-108.281494
19289.062500	-108.195114
19294.921875	-109.330391
19300.781250	-109.402740
19306.640625	-109.929161
19312.500000	-108.882149
19318.359375	-107.876724
19324.218750	-107.653313
19330.078125	-109.016396
19335.937500	-109.049881
19341.796875	-106.438553
19347.656250	-105.966522
19353.515625	-106.885979
19359.375000	-107.069405
19365.234375	-107.882553
19371.093750	-107.328514
19376.953125	-107.420334
19382.812500	-106.526253
19388.671875	-106.254250
19394.531250	-105.359612
19400.390625	-105.982300
19406.250000	-107.372726
19412.109375	-105.419205
19417.968750	-105.834381
19423.828125	-107.117218
19429.687500	-106.732834
19435.546875	-107.892197
19441.406250	-108.625763
19447.265625	-106.836205
19453.125000	-106.686432
19458.984375	-104.169304
19464.843750	-102.743355
19470.703125	-102.691368
19476.562500	-102.384888
19482.421875	-100.690544
19488.281250	-102.316330
19494.140625	-105.295761
19500.000000	-103.991364
19505.859375	-102.460701
19511.718750	-102.377869
19517.578125	-103.162956
19523.437500	-104.416397
19529.296875	-105.566589
19535.156250	-105.908783
19541.015625	-106.872871
19546.875000	-106.042442
19552.734375	-104.759293
19558.593750	-104.192528
19564.453125	-107.441818
19570.312500	-107.992889
19576.171875	-107.101227
19582.031250	-107.431503
19587.890625	-109.837776
19593.750000	-106.647202
19599.609375	-106.069221
19605.468750	-106.220764
19611.328125	-106.517998
19617.187500	-107.464966
19623.046875	-107.673332
19628.906250	-106.164024
19634.765625	-106.592636
19640.625000	-108.036659
19646.484375	-108.599785
19652.343750	-108.778580
19658.203125	-109.613846
19664.062500	-108.461693
19669.921875	-107.743752
19675.781250	-108.373680
19681.640625	-108.150772
19687.500000	-110.182022
19693.359375	-109.621147
19699.218750	-109.682686
19705.078125	-110.665985
19710.937500	-108.853050
19716.796875	-108.248772
19722.656250	-107.908638
19728.515625	-108.147621
19734.375000	-108.641151
19740.234375	-108.615959
19746.093750	-109.218048
19751.953125	-110.968170
19757.812500	-110.117310
19763.671875	-108.881126
19769.531250	-108.274910
19775.390625	-108.404892
19781.250000	-108.945190
19787.109375	-108.397011
19792.968750	-108.413582
19798.828125	-109.112434
19804.687500	-108.587860
19810.546875	-109.229683
19816.406250	-109.119118
19822.265625	-109.588242
19828.125000	-109.883171
19833.984375	-109.909447
19839.843750	-109.867813
19845.703125	-109.961494
19851.562500	-110.064407
19857.421875	-108.859886
19863.281250	-109.372482
19869.140625	-107.461876
19875.000000	-108.984192
19880.859375	-109.698738
19886.718750	-107.662682
19892.578125	-108.033257
19898.437500	-107.523819
19904.296875	-103.690979
19910.156250	-103.865456
19916.015625	-102.242416
19921.875000	-100.470123
19927.734375	-101.617874
19933.593750	-105.990868
19939.453125	-106.895905
19945.312500	-102.993950
19951.171875	-102.502945
19957.031250	-102.517754
19962.890625	-104.407974
19968.750000	-105.413200
19974.609375	-104.250328
19980.468750	-105.189529
19986.328125	-107.730408
19992.187500	-107.722664
19998.046875	-105.647385
20003.906250	-105.607147
20009.765625	-107.806862
20015.625000	-107.220840
20021.484375	-108.072884
20027.343750	-108.039795
20033.203125	-109.022964
20039.062500	-107.934792
20044.921875	-108.164017
20050.781250	-106.336235
20056.640625	-105.246536
20062.500000	-106.215004
20068.359375	-105.675140
20074.218750	-107.451225
20080.078125	-107.585297
20085.937500	-108.697891
20091.796875	-110.316681
20097.656250	-110.125038
20103.515625	-108.851700
20109.375000	-108.400215
20115.234375	-108.855911
20121.093750	-108.799774
20126.953125	-107.824554
20132.812500	-107.993660
20138.671875	-108.117966
20144.531250	-108.657265
20150.390625	-109.957565
20156.250000	-107.943138
20162.109375	-106.840523
20167.968750	-107.581093
20173.828125	-107.872421
20179.687500	-108.254448
20185.546875	-108.611176
20191.406250	-107.421906
20197.265625	-108.693527
20203.125000	-109.524513
20208.984375	-108.909996
20214.843750	-108.482224
20220.703125	-108.543251
20226.562500	-109.958458
20232.421875	-109.963455
20238.281250	-110.082100
20244.140625	-108.714661
20250.000000	-108.328781
20255.859375	-108.196968
20261.718750	-108.847115
20267.578125	-109.881561
20273.437500	-110.388290
20279.296875	-110.361786
20285.156250	-110.747894
20291.015625	-110.195747
20296.875000	-109.647408
20302.734375	-111.798180
20308.593750	-110.060104
20314.453125	-108.358047
20320.312500	-108.997963
20326.171875	-111.660995
20332.031250	-109.597748
20337.890625	-108.177803
20343.750000	-106.728790
20349.609375	-105.030418
20355.468750	-104.141144
20361.328125	-101.842606
20367.187500	-102.267212
20373.046875	-105.931396
20378.906250	-107.559090
20384.765625	-104.610176
20390.625000	-102.425575
20396.484375	-103.856903
20402.343750	-103.261436
20408.203125	-104.793854
20414.062500	-106.452454
20419.921875	-105.731697
20425.781250	-107.400757
20431.640625	-109.113754
20437.500000	-107.800636
20443.359375	-107.092651
20449.218750	-107.189224
20455.078125	-109.459694
20460.937500	-109.378204
20466.796875	-108.448807
20472.656250	-109.360405
20478.515625	-110.675156
20484.375000	-108.669769
20490.234375	-109.049927
20496.093750	-109.026947
20501.953125	-107.771416
20507.812500	-107.503136
20513.671875	-107.902306
20519.531250	-108.554497
20525.390625	-108.220680
20531.250000	-110.279129
20537.109375	-110.644661
20542.968750	-110.683548
20548.828125	-109.250099
20554.687500	-108.642242
20560.546875	-108.106819
20566.406250	-108.407524
20572.265625	-108.944839
20578.125000	-107.754242
20583.984375	-107.772957
20589.843750	-107.965996
20595.703125	-109.700096
20601.562500	-110.126724
20607.421875	-108.269470
20613.281250	-107.925468
20619.140625	-108.769333
20625.000000	-110.564941
20630.859375	-109.665520
20636.718750	-108.091095
20642.578125	-109.078552
20648.437500	-108.416252
20654.296875	-107.432388
20660.156250	-108.115219
20666.015625	-108.610397
20671.875000	-108.186317
20677.734375	-109.114693
20683.593750	-109.620384
20689.453125	-109.470078
20695.312500	-109.612053
20701.171875	-110.770622
20707.031250	-109.680214
20712.890625	-107.623474
20718.750000	-108.343819
20724.609375	-109.759254
20730.468750	-111.531776
20736.328125	-110.750969
20742.187500	-109.243408
20748.046875	-110.046104
20753.906250	-108.470406
20759.765625	-107.937241
20765.625000	-109.143181
20771.484375	-109.093201
20777.343750	-107.650291
20783.203125	-106.382462
20789.062500	-105.532745
20794.921875	-103.597343
20800.781250	-101.997551
20806.640625	-101.157669
20812.500000	-103.522171
20818.359375	-106.808319
20824.218750	-106.773170
20830.078125	-105.137192
20835.937500	-104.723999
20841.796875	-103.656738
20847.656250	-103.425789
20853.515625	-106.044182
20859.375000	-106.913544
20865.234375	-107.453873
20871.093750	-106.869148
20876.953125	-107.138123
20882.812500	-107.480736
20888.671875	-107.690575
20894.531250	-107.566002
20900.390625	-107.652809
20906.250000	-108.595169
20912.109375	-107.385582
20917.968750	-107.513077
20923.828125	-107.914970
20929.687500	-107.579041
20935.546875	-106.801537
20941.406250	-106.198143
20947.265625	-106.888466
20953.125000	-107.144760
20958.984375	-106.265297
20964.843750	-105.244057
20970.703125	-107.245361
20976.562500	-108.380440
20982.421875	-106.405319
20988.281250	-107.887039
20994.140625	-107.818382
21000.000000	-107.087547
21005.859375	-107.542572
21011.718750	-107.362602
21017.578125	-107.688744
21023.437500	-107.709915
21029.296875	-107.474586
21035.156250	-107.294754
21041.015625	-107.018250
21046.875000	-108.500786
21052.734375	-106.703270
21058.593750	-106.193710
21064.453125	-105.986656
21070.312500	-105.283539
21076.171875	-106.236977
21082.031250	-105.385902
21087.890625	-105.456024
21093.750000	-104.217369
21099.609375	-103.824844
21105.468750	-104.308914
21111.328125	-105.447517
21117.187500	-105.377144
21123.046875	-105.580414
21128.906250	-105.257240
21134.765625	-105.048592
21140.625000	-106.345024
21146.484375	-106.688080
21152.343750	-105.239510
21158.203125	-104.829590
21164.062500	-105.594810
21169.921875	-105.894920
21175.781250	-106.389381
21181.640625	-106.435280
21187.500000	-105.172615
21193.359375	-106.440445
21199.218750	-106.562454
21205.078125	-107.148407
21210.937500	-108.840065
21216.796875	-107.132828
21222.656250	-106.110886
21228.515625	-106.282349
21234.375000	-104.962685
21240.234375	-104.151924
21246.093750	-103.506310
21251.953125	-102.961143
21257.812500	-104.558456
21263.671875	-105.750679
21269.531250	-106.582756
21275.390625	-104.719452
21281.250000	-103.823410
21287.109375	-101.455673
21292.968750	-103.633667
21298.828125	-105.144882
21304.687500	-105.206894
21310.546875	-105.102501
21316.406250	-103.304672
21322.265625	-103.747375
21328.125000	-104.324852
21333.984375	-105.087212
21339.843750	-106.145348
21345.703125	-105.858170
21351.562500	-105.415550
21357.421875	-105.977448
21363.281250	-105.767151
21369.140625	-104.820595
21375.000000	-104.256805
21380.859375	-102.824783
21386.718750	-103.916885
21392.578125	-106.290581
21398.437500	-105.967293
21404.296875	-105.127617
21410.156250	-106.619469
21416.015625	-106.751915
21421.875000	-106.680908
21427.734375	-108.112930
21433.593750	-108.538208
21439.453125	-107.663834
21445.312500	-107.588867
21451.171875	-108.277901
21457.031250	-107.366440
21462.890625	-108.192307
21468.750000	-109.833061
21474.609375	-111.622849
21480.468750	-109.800140
21486.328125	-110.385765
21492.187500	-110.559174
21498.046875	-110.367004
21503.906250	-111.759422
21509.765625	-109.287125
21515.625000	-110.918022
21521.484375	-112.166344
21527.343750	-112.209763
21533.203125	-112.142288
21539.062500	-110.366356
21544.921875	-109.766319
21550.781250	-110.350693
21556.640625	-111.443306
21562.500000	-110.818520
21568.359375	-111.168091
21574.218750	-109.625923
21580.078125	-110.877594
21585.937500	-111.227150
21591.796875	-111.946930
21597.656250	-110.322563
21603.515625	-109.524620
21609.375000	-109.517723
21615.234375	-109.284279
21621.093750	-109.363365
21626.953125	-109.609932
21632.812500	-110.319771
21638.671875	-112.130737
21644.531250	-111.668365
21650.390625	-112.410072
21656.250000	-113.431030
21662.109375	-110.870232
21667.968750	-109.206947
21673.828125	-109.976875
21679.687500	-109.614456
21685.546875	-109.483299
21691.406250	-108.539711
21697.265625	-108.779716
21703.125000	-110.486412
21708.984375	-110.998886
21714.843750	-110.951996
21720.703125	-109.560959
21726.562500	-109.372749
21732.421875	-109.027420
21738.281250	-111.059433
21744.140625	-109.683517
21750.000000	-109.015175
21755.859375	-110.024452
21761.718750	-109.528557
21767.578125	-109.380440
21773.437500	-110.928833
21779.296875	-111.851578
21785.156250	-111.677315
21791.015625	-110.859192
21796.875000	-111.581810
21802.734375	-112.671074
21808.593750	-112.580902
21814.453125	-111.087120
21820.312500	-110.196922
21826.171875	-110.031120
21832.031250	-111.248474
21837.890625	-112.282211
21843.750000	-112.424942
21849.609375	-112.992584
21855.468750	-112.517090
21861.328125	-112.264442
21867.187500	-111.864494
21873.046875	-112.571358
21878.906250	-113.431015
21884.765625	-114.108162
21890.625000	-114.740288
21896.484375	-112.174850
21902.343750	-110.924934
21908.203125	-113.019852
21914.062500	-114.888779
21919.921875	-113.637978
21925.781250	-113.129814
21931.640625	-112.990143
21937.500000	-111.372345
21943.359375	-114.374214
21949.218750	-114.987511
21955.078125	-113.486031
21960.937500	-114.049957
21966.796875	-115.740158
21972.656250	-113.545982
21978.515625	-113.391418
21984.375000	-112.532921
21990.234375	-112.216347
21996.093750	-112.384605
22001.953125	-113.732025
22007.812500	-113.280930
22013.671875	-113.685333
22019.531250	-112.616768
22025.390625	-114.369583
22031.250000	-114.254799
22037.109375	-113.715782
22042.968750	-112.904053
22048.828125	-112.893448
22054.687500	-114.156876
22060.546875	-112.869774
22066.406250	-112.029106
22072.265625	-112.064262
22078.125000	-112.410103
22083.984375	-113.594849
22089.843750	-113.063828
22095.703125	-112.605118
22101.562500	-112.343727
22107.421875	-110.332390
22113.281250	-109.651161
22119.140625	-112.274872
22125.000000	-113.269714
22130.859375	-112.108475
22136.718750	-112.238846
22142.578125	-111.779007
22148.437500	-111.441116
22154.296875	-111.541588
22160.156250	-111.918091
22166.015625	-112.783249
22171.875000	-109.606270
22177.734375	-110.894714
22183.593750	-112.347092
22189.453125	-111.929893
22195.312500	-112.943604
22201.171875	-112.137146
22207.031250	-111.122528
22212.890625	-110.602959
22218.750000	-111.521568
22224.609375	-114.342583
22230.468750	-112.298294
22236.328125	-113.196335
22242.187500	-113.003265
22248.046875	-112.814247
22253.906250	-111.926422
22259.765625	-111.007050
22265.625000	-112.458168
22271.484375	-113.179817
22277.343750	-112.282623
22283.203125	-112.109612
22289.062500	-113.186340
22294.921875	-114.212143
22300.781250	-112.667160
22306.640625	-112.885376
22312.500000	-113.433128
22318.359375	-113.866623
22324.218750	-113.722549
22330.078125	-112.819687
22335.937500	-112.769272
22341.796875	-111.948128
22347.656250	-110.611801
22353.515625	-110.088684
22359.375000	-111.561890
22365.234375	-110.892303
22371.093750	-111.455910
22376.953125	-111.336365
22382.812500	-110.665680
22388.671875	-113.379089
22394.531250	-112.067802
22400.390625	-110.256638
22406.250000	-110.788017
22412.109375	-110.707550
22417.968750	-110.312981
22423.828125	-111.330894
22429.687500	-111.609070
22435.546875	-110.220680
22441.406250	-111.625366
22447.265625	-113.179352
22453.125000	-113.820320
22458.984375	-112.792610
22464.843750	-113.303635
22470.703125	-112.165306
22476.562500	-112.366325
22482.421875	-111.996773
22488.281250	-113.339905
22494.140625	-112.983543
22500.000000	-111.971054
22505.859375	-110.801178
22511.718750	-110.533028
22517.578125	-111.145432
22523.437500	-111.674805
22529.296875	-111.849602
22535.156250	-112.045441
22541.015625	-113.613007
22546.875000	-111.510078
22552.734375	-111.171677
22558.593750	-109.557365
22564.453125	-107.651070
22570.312500	-107.237625
22576.171875	-107.510521
22582.031250	-107.748566
22587.890625	-110.486755
22593.750000	-111.951714
22599.609375	-111.559349
22605.468750	-110.362946
22611.328125	-110.516533
22617.187500	-109.188164
22623.046875	-112.021736
22628.906250	-112.454994
22634.765625	-112.709183
22640.625000	-114.090843
22646.484375	-112.863457
22652.343750	-111.868179
22658.203125	-111.729797
22664.062500	-112.539017
22669.921875	-113.441803
22675.781250	-112.261208
22681.640625	-112.162033
22687.500000	-113.209229
22693.359375	-113.342918
22699.218750	-112.276154
22705.078125	-111.625366
22710.937500	-111.187599
22716.796875	-112.709511
22722.656250	-113.271568
22728.515625	-112.465981
22734.375000	-112.043388
22740.234375	-111.962128
22746.093750	-112.169708
22751.953125	-111.879128
22757.812500	-113.565208
22763.671875	-114.689270
22769.531250	-114.190147
22775.390625	-114.080467
22781.250000	-114.133530
22787.109375	-113.093506
22792.968750	-112.283821
22798.828125	-112.400002
22804.687500	-115.042694
22810.546875	-115.380051
22816.406250	-115.397728
22822.265625	-113.399208
22828.125000	-113.216286
22833.984375	-115.421883
22839.843750	-114.698250
22845.703125	-114.033554
22851.562500	-113.563721
22857.421875	-112.792809
22863.281250	-113.147484
22869.140625	-113.804420
22875.000000	-113.484039
22880.859375	-113.584709
22886.718750	-114.292152
22892.578125	-114.330887
22898.437500	-114.028076
22904.296875	-114.027191
22910.156250	-115.318146
22916.015625	-114.406662
22921.875000	-113.534744
22927.734375	-115.186134
22933.593750	-114.901985
22939.453125	-114.414276
22945.312500	-114.813110
22951.171875	-114.392776
22957.031250	-114.379173
22962.890625	-114.589096
22968.750000	-114.807297
22974.609375	-114.036934
22980.468750	-113.994453
22986.328125	-115.114983
22992.187500	-114.127419
22998.046875	-113.869934
23003.906250	-116.160187
23009.765625	-114.427277
23015.625000	-113.705147
23021.484375	-114.524590
23027.343750	-115.826370
23033.203125	-114.778214
23039.062500	-114.910622
23044.921875	-115.092766
23050.781250	-113.738274
23056.640625	-115.104759
23062.500000	-116.123062
23068.359375	-115.937813
23074.218750	-114.738297
23080.078125	-116.326775
23085.937500	-118.652237
23091.796875	-116.502167
23097.656250	-116.201141
23103.515625	-115.188980
23109.375000	-116.488762
23115.234375	-117.857239
23121.093750	-116.431587
23126.953125	-116.121117
23132.812500	-117.388496
23138.671875	-117.259140
23144.531250	-116.691917
23150.390625	-116.638832
23156.250000	-116.513397
23162.109375	-117.806122
23167.968750	-117.634392
23173.828125	-117.424202
23179.687500	-118.210182
23185.546875	-117.015572
23191.406250	-116.754501
23197.265625	-117.274246
23203.125000	-118.046028
23208.984375	-118.707893
23214.843750	-117.876228
23220.703125	-116.822144
23226.562500	-116.360924
23232.421875	-116.712440
23238.281250	-116.594597
23244.140625	-117.587921
23250.000000	-118.207359
23255.859375	-116.744591
23261.718750	-116.643059
23267.578125	-115.735184
23273.437500	-116.608414
23279.296875	-117.674545
23285.156250	-119.111755
23291.015625	-118.854477
23296.875000	-118.008759
23302.734375	-117.441704
23308.593750	-119.956070
23314.453125	-119.823196
23320.312500	-116.204269
23326.171875	-115.882462
23332.031250	-118.660416
23337.890625	-118.531647
23343.750000	-117.794304
23349.609375	-117.631210
23355.468750	-117.903648
23361.328125	-117.607407
23367.187500	-118.114105
23373.046875	-119.192955
23378.906250	-117.720795
23384.765625	-117.880791
23390.625000	-118.012466
23396.484375	-117.305473
23402.343750	-117.808266
23408.203125	-118.258698
23414.062500	-117.834793
23419.921875	-117.975670
23425.781250	-117.680138
23431.640625	-117.702408
23437.500000	-115.802643
23443.359375	-117.262581
23449.218750	-118.482758
23455.078125	-118.527321
23460.937500	-118.381035
23466.796875	-118.348640
23472.656250	-118.308846
23478.515625	-116.737022
23484.375000	-117.634613
23490.234375	-118.201393
23496.093750	-119.449371
23501.953125	-120.439636
23507.812500	-120.291512
23513.671875	-117.798454
23519.531250	-117.728157
23525.390625	-118.248886
23531.250000	-119.781052
23537.109375	-118.675797
23542.968750	-118.643013
23548.828125	-118.477158
23554.687500	-120.230675
23560.546875	-119.310295
23566.406250	-119.200829
23572.265625	-120.679863
23578.125000	-120.686234
23583.984375	-120.056534
23589.843750	-119.621979
23595.703125	-119.259140
23601.562500	-119.956985
23607.421875	-120.695076
23613.281250	-120.468994
23619.140625	-119.971802
23625.000000	-119.674370
23630.859375	-118.977936
23636.718750	-120.080231
23642.578125	-119.709984
23648.437500	-119.547913
23654.296875	-119.786621
23660.156250	-121.141708
23666.015625	-119.994644
23671.875000	-119.331779
23677.734375	-119.801819
23683.593750	-119.891777
23689.453125	-119.932098
23695.312500	-118.953209
23701.171875	-119.625763
23707.031250	-119.676353
23712.890625	-120.145508
23718.750000	-120.724373
23724.609375	-120.993126
23730.468750	-122.065048
23736.328125	-122.262619
23742.187500	-120.230896
23748.046875	-121.015434
23753.906250	-121.554337
23759.765625	-121.225716
23765.625000	-118.585701
23771.484375	-119.452072
23777.343750	-120.051460
23783.203125	-120.700584
23789.062500	-120.236542
23794.921875	-119.077507
23800.781250	-120.424004
23806.640625	-120.891891
23812.500000	-121.208321
23818.359375	-121.126846
23824.218750	-121.551651
23830.078125	-121.145119
23835.937500	-120.855125
23841.796875	-120.482582
23847.656250	-121.951721
23853.515625	-121.304398
23859.375000	-121.461388
23865.234375	-123.743439
23871.093750	-120.831657
23876.953125	-119.803719
23882.812500	-120.220299
23888.671875	-119.318138
23894.531250	-121.543770
23900.390625	-121.958054
23906.250000	-121.126198
23912.109375	-123.156128
23917.968750	-121.227119
23923.828125	-120.115128
23929.687500	-119.534515
23935.546875	-121.121475
23941.406250	-122.407921
23947.265625	-121.169701
23953.125000	-120.684273
23958.984375	-120.239059
23964.843750	-119.685532
23970.703125	-119.883957
23976.562500	-121.168823
23982.421875	-121.675575
23988.281250	-122.178070
23994.140625	-121.551605
